*RAS_DATA_START
*RAS_HEADER_START
*DISP_FMT_X "%.3f"
*DISP_FMT_Y "%.0f"
*DISP_FULLSCALE "44504386.0376923080"
*DISP_LINE_COLOR "255.0000000000"
*DISP_LINE_STYLE "0.0000000000"
*DISP_LINE_WIDTH "0.2500000000"
*DISP_NOTE "Collected Data-14"
*DISP_OFFSET_Y "0.0000000000"
*DISP_PEAKSEARCH_UNIT_Y "cps"
*DISP_RANGE_BOTTOM "0.0100000000"
*DISP_RANGE_LEFT "0.0000000000"
*DISP_RANGE_LOGCUTOFF "0.0100000000"
*DISP_RANGE_RIGHT "19.9992000000"
*DISP_RANGE_TOP "44504386.0376923080"
*DISP_SCALE_MODE_Y "2.0000000000"
*DISP_TAB_NAME "2-Theta/Omega"
*DISP_TITLE_Y "Intensity"
*DISP_UNIT_Y "cps"
*DISP_WINDOW_NAME "MSG_MACROENGINE"
*FILE_COMMENT " "
*FILE_MD5 ""
*FILE_MEMO " "
*FILE_OPERATOR "Administrator"
*FILE_SAMPLE " "
*FILE_TYPE "RAS_RAW"
*FILE_USERGROUP "System Manager"
*FILE_VERSION "1.0000000000"
*HW_ATTACHMENT_ID "ATT0022"
*HW_ATTACHMENT_NAME "RxRy|RxRy"
*HW_COUNTER_ID-0 "CUT0021"
*HW_COUNTER_ID-1 "CUT0020"
*HW_COUNTER_ID-2 ""
*HW_COUNTER_ID-3 "CSL0021"
*HW_COUNTER_ID-4 "CMC0021"
*HW_COUNTER_NAME-0 "SC-70|SC-70"
*HW_COUNTER_NAME-1 "None|None"
*HW_COUNTER_NAME-2 ""
*HW_COUNTER_NAME-3 "BBM|BBM"
*HW_COUNTER_NAME-4 "検出器モノクロメータ|Detector monochromator"
*HW_COUNTER_SELECT_NAME "SC-70|SC-70"
*HW_ECP_HV "660.0000000000"
*HW_ECP_HV_UNIT "V"
*HW_GONIOMETER_ID "GON0023"
*HW_GONIOMETER_NAME "SmartLab|SmartLab"
*HW_GONIOMETER_RADIUS-0 "90.0"
*HW_GONIOMETER_RADIUS-1 "114.0"
*HW_GONIOMETER_RADIUS-2 "190.0"
*HW_GONIOMETER_RADIUS-3 "300.0"
*HW_GONIOMETER_RADIUS-4 "187.0"
*HW_GONIOMETER_RADIUS-5 "300.0"
*HW_GONIOMETER_RADIUS-6 "113.0"
*HW_GONIOMETER_RADIUS-7 "331.0"
*HW_I_OPT_ID-0 "CBO0021"
*HW_I_OPT_ID-1 "ICR0021"
*HW_I_OPT_ID-2 "ISL0021"
*HW_I_OPT_ID-3 "ISO0021"
*HW_I_OPT_ID-4 "IAD0021"
*HW_I_OPT_ID-5 "IPR0001"
*HW_I_OPT_NAME-0 "CBOユニット|CBO unit"
*HW_I_OPT_NAME-1 "標準入射光学ユニット|Standard incident optical unit"
*HW_I_OPT_NAME-2 "標準入射スリットボックス|Standard incident slit box"
*HW_I_OPT_NAME-3 "入射平行スリット|Incident parallel slit"
*HW_I_OPT_NAME-4 "長手制限スリット|Length limiting slit"
*HW_I_OPT_NAME-5 "None|None"
*HW_R_ATTENUATER_AUTOMODE "1"
*HW_R_OPT_ID-0 "RSS0021"
*HW_R_OPT_ID-1 "RCR0022"
*HW_R_OPT_ID-2 "RSO0021"
*HW_R_OPT_ID-3 "RRS0021"
*HW_R_OPT_ID-4 "ATN0021"
*HW_R_OPT_ID-5 "RFL0021"
*HW_R_OPT_ID-6 "RAD0021"
*HW_R_OPT_NAME-0 "標準受光スリットボックス1|Standard receiving slit box # 1"
*HW_R_OPT_NAME-1 "標準受光光学ユニット1|Standard receiving unit # 1"
*HW_R_OPT_NAME-2 "標準受光光学ユニット2|Standard receiving optical unit # 2"
*HW_R_OPT_NAME-3 "標準受光スリットボックス2|Standard receiving slit box # 2"
*HW_R_OPT_NAME-4 "標準アッテネータ|Standard Attenuator"
*HW_R_OPT_NAME-5 "Cu Kβ|Cu K-beta"
*HW_R_OPT_NAME-6 "調整用受光スリット|Alignment receiving slit"
*HW_SAMPLE_HOLDER_ID "SMP0023"
*HW_SAMPLE_HOLDER_NAME "標準Zステージ|Standard Z stage"
*HW_XG_CURRENT_MAX "200"
*HW_XG_CURRENT_MIN "10"
*HW_XG_CURRENT_RESOLUTION "2"
*HW_XG_CURRENT_UNIT "mA"
*HW_XG_FOCUS ""
*HW_XG_FOCUS_TYPE "Normal"
*HW_XG_ID ""
*HW_XG_NAME "9kW 開放管(45kV 200mA ID:1700)|9kW Rotating anode(45kV 200mA ID:1700)"
*HW_XG_TARGET_ATOMIC_NUMBER "29.0000000000"
*HW_XG_TARGET_NAME "Cu"
*HW_XG_TYPE "Rota"
*HW_XG_VOLTAGE_MAX "45"
*HW_XG_VOLTAGE_MIN "20"
*HW_XG_VOLTAGE_RESOLUTION "2"
*HW_XG_VOLTAGE_UNIT "kV"
*HW_XG_WATT_MAX "9"
*HW_XG_WATT_UNIT "kW"
*HW_XG_WAVE_LENGTH_ALPHA1 "1.540593"
*HW_XG_WAVE_LENGTH_ALPHA2 "1.544414"
*HW_XG_WAVE_LENGTH_BETA "1.392250"
*MEAS_COND_AXIS_NAME-0 "Theta/2-Theta"
*MEAS_COND_AXIS_NAME-1 "2-Theta"
*MEAS_COND_AXIS_NAME-2 "Omega"
*MEAS_COND_AXIS_NAME-3 "2-Theta/Omega"
*MEAS_COND_AXIS_NAME-4 "Z"
*MEAS_COND_AXIS_NAME-5 "Rx"
*MEAS_COND_AXIS_NAME-6 "Ry"
*MEAS_COND_AXIS_NAME-7 "Attenuator"
*MEAS_COND_AXIS_NAME-8 "Theta_s"
*MEAS_COND_AXIS_NAME-9 "Theta_d"
*MEAS_COND_AXIS_NAME-10 "Ts"
*MEAS_COND_AXIS_NAME-11 "M"
*MEAS_COND_AXIS_NAME-12 "Omega_m"
*MEAS_COND_AXIS_NAME-13 "Incident slit"
*MEAS_COND_AXIS_NAME-14 ""
*MEAS_COND_AXIS_NAME-15 "Zs"
*MEAS_COND_AXIS_NAME-16 "Receiving slit # 1"
*MEAS_COND_AXIS_NAME-17 ""
*MEAS_COND_AXIS_NAME-18 "Receiving slit # 2"
*MEAS_COND_AXIS_NAME-19 ""
*MEAS_COND_AXIS_NAME-20 "Zd"
*MEAS_COND_AXIS_NAME-21 "CBO selection slit"
*MEAS_COND_AXIS_NAME-22 "Incident optical device"
*MEAS_COND_AXIS_NAME-23 "Incident parallel slit"
*MEAS_COND_AXIS_NAME-24 "Length limiting slit"
*MEAS_COND_AXIS_NAME-25 "Center slit"
*MEAS_COND_AXIS_NAME-26 "Filter"
*MEAS_COND_AXIS_NAME-27 "Receiving optical device"
*MEAS_COND_AXIS_NAME-28 "Receiving parallel slit"
*MEAS_COND_AXIS_NAME-29 "Alignment receiving slit"
*MEAS_COND_AXIS_NAME-30 "Diffracted beam monochromator"
*MEAS_COND_AXIS_NAME-31 "Monochromator slit"
*MEAS_COND_AXIS_NAME-32 "Primary beam"
*MEAS_COND_AXIS_NAME-33 "HV"
*MEAS_COND_AXIS_NAME-34 "PHA"
*MEAS_COND_AXIS_NAME_INTERNAL-0 "TwoThetaTheta"
*MEAS_COND_AXIS_NAME_INTERNAL-1 "TwoTheta"
*MEAS_COND_AXIS_NAME_INTERNAL-2 "Omega"
*MEAS_COND_AXIS_NAME_INTERNAL-3 "TwoThetaOmega"
*MEAS_COND_AXIS_NAME_INTERNAL-4 "Z"
*MEAS_COND_AXIS_NAME_INTERNAL-5 "Rx"
*MEAS_COND_AXIS_NAME_INTERNAL-6 "Ry"
*MEAS_COND_AXIS_NAME_INTERNAL-7 "Attenuator"
*MEAS_COND_AXIS_NAME_INTERNAL-8 "ThetaS"
*MEAS_COND_AXIS_NAME_INTERNAL-9 "ThetaD"
*MEAS_COND_AXIS_NAME_INTERNAL-10 "Ts"
*MEAS_COND_AXIS_NAME_INTERNAL-11 "CBO-M"
*MEAS_COND_AXIS_NAME_INTERNAL-12 "IncidentMonochromator-OmegaM"
*MEAS_COND_AXIS_NAME_INTERNAL-13 "IncidentSlitBox"
*MEAS_COND_AXIS_NAME_INTERNAL-14 "IncidentSlitBox-_Axis"
*MEAS_COND_AXIS_NAME_INTERNAL-15 "Zs"
*MEAS_COND_AXIS_NAME_INTERNAL-16 "ReceivingSlitBox1"
*MEAS_COND_AXIS_NAME_INTERNAL-17 "ReceivingSlitBox1-_Axis"
*MEAS_COND_AXIS_NAME_INTERNAL-18 "ReceivingSlitBox2"
*MEAS_COND_AXIS_NAME_INTERNAL-19 "ReceivingSlitBox2-_Axis"
*MEAS_COND_AXIS_NAME_INTERNAL-20 "ReceivingSlitBox2-Zd"
*MEAS_COND_AXIS_NAME_INTERNAL-21 "CBO"
*MEAS_COND_AXIS_NAME_INTERNAL-22 "IncidentMonochromator"
*MEAS_COND_AXIS_NAME_INTERNAL-23 "IncidentSollerSlit"
*MEAS_COND_AXIS_NAME_INTERNAL-24 "IncidentAxdSlit"
*MEAS_COND_AXIS_NAME_INTERNAL-25 "CenterSlit"
*MEAS_COND_AXIS_NAME_INTERNAL-26 "Filter"
*MEAS_COND_AXIS_NAME_INTERNAL-27 "ReceivingOptics"
*MEAS_COND_AXIS_NAME_INTERNAL-28 "ReceivingSollerSlit"
*MEAS_COND_AXIS_NAME_INTERNAL-29 "ReceivingAxdSlit"
*MEAS_COND_AXIS_NAME_INTERNAL-30 "CounterMonochromator"
*MEAS_COND_AXIS_NAME_INTERNAL-31 "CounterSlit"
*MEAS_COND_AXIS_NAME_INTERNAL-32 "IncidentPrimary"
*MEAS_COND_AXIS_NAME_INTERNAL-33 "HV"
*MEAS_COND_AXIS_NAME_INTERNAL-34 "PHA"
*MEAS_COND_AXIS_NAME_MAGICNO-0 "83951616.0000000000"
*MEAS_COND_AXIS_NAME_MAGICNO-1 "268632064.0000000000"
*MEAS_COND_AXIS_NAME_MAGICNO-2 "268500992.0000000000"
*MEAS_COND_AXIS_NAME_MAGICNO-3 "83951616.0000000000"
*MEAS_COND_AXIS_NAME_MAGICNO-4 "285278208.0000000000"
*MEAS_COND_AXIS_NAME_MAGICNO-5 "285278208.0000000000"
*MEAS_COND_AXIS_NAME_MAGICNO-6 "285278208.0000000000"
*MEAS_COND_AXIS_NAME_MAGICNO-7 "17301505.0000000000"
*MEAS_COND_AXIS_NAME_MAGICNO-8 "131072.0000000000"
*MEAS_COND_AXIS_NAME_MAGICNO-9 "131072.0000000000"
*MEAS_COND_AXIS_NAME_MAGICNO-10 "318898176.0000000000"
*MEAS_COND_AXIS_NAME_MAGICNO-11 "285343744.0000000000"
*MEAS_COND_AXIS_NAME_MAGICNO-12 "285343744.0000000000"
*MEAS_COND_AXIS_NAME_MAGICNO-13 "22020097.0000000000"
*MEAS_COND_AXIS_NAME_MAGICNO-14 "25165824.0000000000"
*MEAS_COND_AXIS_NAME_MAGICNO-15 "318898176.0000000000"
*MEAS_COND_AXIS_NAME_MAGICNO-16 "23068673.0000000000"
*MEAS_COND_AXIS_NAME_MAGICNO-17 "25165824.0000000000"
*MEAS_COND_AXIS_NAME_MAGICNO-18 "23068673.0000000000"
*MEAS_COND_AXIS_NAME_MAGICNO-19 "25165824.0000000000"
*MEAS_COND_AXIS_NAME_MAGICNO-20 "285343744.0000000000"
*MEAS_COND_AXIS_NAME_MAGICNO-21 "20971521.0000000000"
*MEAS_COND_AXIS_NAME_MAGICNO-22 "20971521.0000000000"
*MEAS_COND_AXIS_NAME_MAGICNO-23 "20971521.0000000000"
*MEAS_COND_AXIS_NAME_MAGICNO-24 "20971521.0000000000"
*MEAS_COND_AXIS_NAME_MAGICNO-25 "20971521.0000000000"
*MEAS_COND_AXIS_NAME_MAGICNO-26 "20971521.0000000000"
*MEAS_COND_AXIS_NAME_MAGICNO-27 "20971521.0000000000"
*MEAS_COND_AXIS_NAME_MAGICNO-28 "20971521.0000000000"
*MEAS_COND_AXIS_NAME_MAGICNO-29 "20971521.0000000000"
*MEAS_COND_AXIS_NAME_MAGICNO-30 "20971521.0000000000"
*MEAS_COND_AXIS_NAME_MAGICNO-31 "20971521.0000000000"
*MEAS_COND_AXIS_NAME_MAGICNO-32 "20971521.0000000000"
*MEAS_COND_AXIS_NAME_MAGICNO-33 "0.0000000000"
*MEAS_COND_AXIS_NAME_MAGICNO-34 "0.0000000000"
*MEAS_COND_AXIS_OFFSET-0 "-"
*MEAS_COND_AXIS_OFFSET-1 "0.8253000000"
*MEAS_COND_AXIS_OFFSET-2 "0.8957000000"
*MEAS_COND_AXIS_OFFSET-3 "-"
*MEAS_COND_AXIS_OFFSET-4 "-"
*MEAS_COND_AXIS_OFFSET-5 "-"
*MEAS_COND_AXIS_OFFSET-6 "-"
*MEAS_COND_AXIS_OFFSET-7 "-"
*MEAS_COND_AXIS_OFFSET-8 "0.8957000000"
*MEAS_COND_AXIS_OFFSET-9 "-0.0704000000"
*MEAS_COND_AXIS_OFFSET-10 "-"
*MEAS_COND_AXIS_OFFSET-11 "-"
*MEAS_COND_AXIS_OFFSET-12 "-"
*MEAS_COND_AXIS_OFFSET-13 "-"
*MEAS_COND_AXIS_OFFSET-14 "-"
*MEAS_COND_AXIS_OFFSET-15 "-"
*MEAS_COND_AXIS_OFFSET-16 "-"
*MEAS_COND_AXIS_OFFSET-17 "-"
*MEAS_COND_AXIS_OFFSET-18 "-"
*MEAS_COND_AXIS_OFFSET-19 "-"
*MEAS_COND_AXIS_OFFSET-20 "-"
*MEAS_COND_AXIS_OFFSET-21 "-"
*MEAS_COND_AXIS_OFFSET-22 "-"
*MEAS_COND_AXIS_OFFSET-23 "-"
*MEAS_COND_AXIS_OFFSET-24 "-"
*MEAS_COND_AXIS_OFFSET-25 "-"
*MEAS_COND_AXIS_OFFSET-26 "-"
*MEAS_COND_AXIS_OFFSET-27 "-"
*MEAS_COND_AXIS_OFFSET-28 "-"
*MEAS_COND_AXIS_OFFSET-29 "-"
*MEAS_COND_AXIS_OFFSET-30 "-"
*MEAS_COND_AXIS_OFFSET-31 "-"
*MEAS_COND_AXIS_OFFSET-32 "-"
*MEAS_COND_AXIS_OFFSET-33 "-"
*MEAS_COND_AXIS_OFFSET-34 "-"
*MEAS_COND_AXIS_POSITION-0 "-0.0026000000"
*MEAS_COND_AXIS_POSITION-1 "-0.0026000000"
*MEAS_COND_AXIS_POSITION-2 "-0.0013000000"
*MEAS_COND_AXIS_POSITION-3 "-0.0026000000"
*MEAS_COND_AXIS_POSITION-4 "-1.7435400000"
*MEAS_COND_AXIS_POSITION-5 "0.0000000000"
*MEAS_COND_AXIS_POSITION-6 "0.0000000000"
*MEAS_COND_AXIS_POSITION-7 "1/10000"
*MEAS_COND_AXIS_POSITION-8 "-0.0013000000"
*MEAS_COND_AXIS_POSITION-9 "-0.0013000000"
*MEAS_COND_AXIS_POSITION-10 "-5.6640000000"
*MEAS_COND_AXIS_POSITION-11 "0.0000000000"
*MEAS_COND_AXIS_POSITION-12 "0.0000000000"
*MEAS_COND_AXIS_POSITION-13 "0.100mm"
*MEAS_COND_AXIS_POSITION-14 "0.1000000000"
*MEAS_COND_AXIS_POSITION-15 "-1.5953100000"
*MEAS_COND_AXIS_POSITION-16 "0.200mm"
*MEAS_COND_AXIS_POSITION-17 "0.2000000000"
*MEAS_COND_AXIS_POSITION-18 "0.200mm"
*MEAS_COND_AXIS_POSITION-19 "0.2000000000"
*MEAS_COND_AXIS_POSITION-20 "0.2634400000"
*MEAS_COND_AXIS_POSITION-21 "PB"
*MEAS_COND_AXIS_POSITION-22 "Ge(220)x2"
*MEAS_COND_AXIS_POSITION-23 "Soller_slit_2.5deg_s"
*MEAS_COND_AXIS_POSITION-24 "10.0mm"
*MEAS_COND_AXIS_POSITION-25 "None"
*MEAS_COND_AXIS_POSITION-26 "None"
*MEAS_COND_AXIS_POSITION-27 "PSA_open"
*MEAS_COND_AXIS_POSITION-28 "Soller_slit_2.5deg"
*MEAS_COND_AXIS_POSITION-29 "None"
*MEAS_COND_AXIS_POSITION-30 "None"
*MEAS_COND_AXIS_POSITION-31 "None"
*MEAS_COND_AXIS_POSITION-32 "None"
*MEAS_COND_AXIS_POSITION-33 "660.0000000000"
*MEAS_COND_AXIS_POSITION-34 "562.5000000000"
*MEAS_COND_AXIS_UNIT-0 "deg"
*MEAS_COND_AXIS_UNIT-1 "deg"
*MEAS_COND_AXIS_UNIT-2 "deg"
*MEAS_COND_AXIS_UNIT-3 "deg"
*MEAS_COND_AXIS_UNIT-4 "mm"
*MEAS_COND_AXIS_UNIT-5 "deg"
*MEAS_COND_AXIS_UNIT-6 "deg"
*MEAS_COND_AXIS_UNIT-7 ""
*MEAS_COND_AXIS_UNIT-8 "deg"
*MEAS_COND_AXIS_UNIT-9 "deg"
*MEAS_COND_AXIS_UNIT-10 "mm"
*MEAS_COND_AXIS_UNIT-11 "pulse"
*MEAS_COND_AXIS_UNIT-12 "pulse"
*MEAS_COND_AXIS_UNIT-13 ""
*MEAS_COND_AXIS_UNIT-14 "mm"
*MEAS_COND_AXIS_UNIT-15 "mm"
*MEAS_COND_AXIS_UNIT-16 ""
*MEAS_COND_AXIS_UNIT-17 "mm"
*MEAS_COND_AXIS_UNIT-18 ""
*MEAS_COND_AXIS_UNIT-19 "mm"
*MEAS_COND_AXIS_UNIT-20 "mm"
*MEAS_COND_AXIS_UNIT-21 ""
*MEAS_COND_AXIS_UNIT-22 ""
*MEAS_COND_AXIS_UNIT-23 ""
*MEAS_COND_AXIS_UNIT-24 ""
*MEAS_COND_AXIS_UNIT-25 ""
*MEAS_COND_AXIS_UNIT-26 ""
*MEAS_COND_AXIS_UNIT-27 ""
*MEAS_COND_AXIS_UNIT-28 ""
*MEAS_COND_AXIS_UNIT-29 ""
*MEAS_COND_AXIS_UNIT-30 ""
*MEAS_COND_AXIS_UNIT-31 ""
*MEAS_COND_AXIS_UNIT-32 ""
*MEAS_COND_AXIS_UNIT-33 "V"
*MEAS_COND_AXIS_UNIT-34 "mV"
*MEAS_COND_COUNTER_CNTLOSS_CORR "1.0000000000"
*MEAS_COND_COUNTER_PHABASE "562.5000000000"
*MEAS_COND_COUNTER_PHAWINDOW "900.0000000000"
*MEAS_COND_COUNTER_PHA_UNIT "mV"
*MEAS_COND_COUNTER_TAUDIFF "0.1931560000"
*MEAS_COND_COUNTER_TAUINT "0.6715790000"
*MEAS_COND_IRRADIATION_MODE "OFF"
*MEAS_COND_IRRADIATION_WIDTH ""
*MEAS_COND_OPT_ATTR "High resolution parallel beam Ge(220)x2/RS"
*MEAS_COND_OPT_NAME "@High resolution PB-Ge(220)x2"
*MEAS_COND_UNSYMMETRIC_MODE "OFF"
*MEAS_COND_XG_CURRENT "200.0000000000"
*MEAS_COND_XG_VOLTAGE "45.0000000000"
*MEAS_COND_XG_WAVE_TYPE "Ka1"
*MEAS_DATA_COUNT "3847.0000000000"
*MEAS_SCAN_AXIS_X "2-Theta/Omega"
*MEAS_SCAN_AXIS_X_INTERNAL "TwoThetaOmega"
*MEAS_SCAN_END_TIME "05/03/12 08:16:32"
*MEAS_SCAN_MODE "CONTINUOUS"
*MEAS_SCAN_MONITOR "0"
*MEAS_SCAN_RESOLUTION_X "0.0002"
*MEAS_SCAN_SPEED "0.0250"
*MEAS_SCAN_SPEED_UNIT "deg/min"
*MEAS_SCAN_START "0.0000000000"
*MEAS_SCAN_START_TIME "05/02/12 18:54:56"
*MEAS_SCAN_STEP "0.0052000000"
*MEAS_SCAN_STOP "19.9992000000"
*MEAS_SCAN_UNIT_X "deg"
*MEAS_SCAN_UNIT_Y "counts"
*RAS_HEADER_END
*RAS_INT_START
0.0000 324762.0313 858.8360
0.0052 336869.0000 858.8360
0.0104 338748.0313 858.8360
0.0156 329010.0000 858.8360
0.0208 284297.0000 858.8360
0.0260 198668.0000 858.8360
0.0312 125822.0000 858.8360
0.0364 101333.0078 858.8360
0.0416 101424.0000 858.8360
0.0468 108331.0000 858.8360
0.0520 118483.0000 858.8360
0.0572 128444.0000 858.8360
0.0624 139862.0000 858.8360
0.0676 151239.0000 858.8360
0.0728 162071.0000 858.8360
0.0780 172156.0000 858.8360
0.0832 183558.0000 858.8360
0.0884 194063.0000 858.8360
0.0936 205351.0000 858.8360
0.0988 214922.0000 858.8360
0.1040 224319.0000 858.8360
0.1092 235823.0000 858.8360
0.1144 246068.0156 858.8360
0.1196 254523.0000 858.8360
0.1248 264262.0000 858.8360
0.1300 274028.0000 858.8360
0.1352 283974.0000 858.8360
0.1404 292145.0000 858.8360
0.1456 301857.0000 858.8360
0.1508 309036.0000 858.8360
0.1560 318397.0000 858.8360
0.1612 327342.0000 858.8360
0.1664 334587.0000 858.8360
0.1716 341714.0000 858.8360
0.1768 350514.0000 858.8360
0.1820 357897.0000 858.8360
0.1872 365880.0000 858.8360
0.1924 371496.0000 858.8360
0.1976 378014.0000 858.8360
0.2028 384058.9688 858.8360
0.2080 390887.9688 858.8360
0.2132 396928.0000 858.8360
0.2184 403389.0000 858.8360
0.2236 408718.0000 858.8360
0.2288 414675.0000 858.8360
0.2340 419691.0000 858.8360
0.2392 424404.0000 858.8360
0.2444 428822.0000 858.8360
0.2496 433473.0000 858.8360
0.2548 439369.0000 858.8360
0.2600 441947.0000 858.8360
0.2652 446472.0000 858.8360
0.2704 451602.0000 858.8360
0.2756 454897.0000 858.8360
0.2808 458404.0000 858.8360
0.2860 460638.0313 858.8360
0.2912 465681.0000 858.8360
0.2964 468268.0000 858.8360
0.3016 471911.0000 858.8360
0.3068 475283.0000 858.8360
0.3120 478772.0000 858.8360
0.3172 481377.0000 858.8360
0.3224 483503.0000 858.8360
0.3276 486082.0313 858.8360
0.3328 488395.0000 858.8360
0.3380 491587.0000 858.8360
0.3432 493734.0000 858.8360
0.3484 496953.0000 858.8360
0.3536 499061.0000 858.8360
0.3588 501501.0000 858.8360
0.3640 502654.0000 858.8360
0.3692 504365.0000 858.8360
0.3744 505971.0000 858.8360
0.3796 508200.0000 858.8360
0.3848 510125.0313 858.8360
0.3900 511990.0000 858.8360
0.3952 512889.0313 858.8360
0.4004 514948.0000 858.8360
0.4056 516276.0000 858.8360
0.4108 516402.9688 858.8360
0.4160 518254.0000 858.8360
0.4212 520187.0000 858.8360
0.4264 520920.0313 858.8360
0.4316 522140.9688 858.8360
0.4368 523157.0313 858.8360
0.4420 523490.0000 858.8360
0.4472 524345.0000 858.8360
0.4524 526741.0000 858.8360
0.4576 526357.0000 858.8360
0.4628 529040.0000 858.8360
0.4680 528369.0000 858.8360
0.4732 528703.0000 858.8360
0.4784 531172.0000 858.8360
0.4836 531897.0000 858.8360
0.4888 530507.0000 858.8360
0.4940 531990.0000 858.8360
0.4992 534753.0000 858.8360
0.5044 532832.0000 858.8360
0.5096 533607.0000 858.8360
0.5148 533011.0000 858.8360
0.5200 535394.0000 858.8360
0.5252 535478.0000 858.8360
0.5304 536089.0000 858.8360
0.5356 536647.0000 858.8360
0.5408 537040.0000 858.8360
0.5460 537289.0000 858.8360
0.5512 536265.0000 858.8360
0.5564 537922.0000 858.8360
0.5616 537243.0000 858.8360
0.5668 537046.0000 858.8360
0.5720 537722.0000 858.8360
0.5772 537591.0000 858.8360
0.5824 538922.0000 858.8360
0.5876 538158.0000 858.8360
0.5928 538332.0000 858.8360
0.5980 537471.0000 858.8360
0.6032 537097.0000 858.8360
0.6084 537668.0000 858.8360
0.6136 537440.0000 858.8360
0.6188 534871.0000 858.8360
0.6240 536561.0000 858.8360
0.6292 536635.0000 858.8360
0.6344 537336.0000 858.8360
0.6396 536291.0000 858.8360
0.6448 534179.0000 858.8360
0.6500 533209.0000 858.8360
0.6552 533127.0000 858.8360
0.6604 533951.0000 858.8360
0.6656 531377.0000 858.8360
0.6708 531758.0000 858.8360
0.6760 529369.0000 858.8360
0.6812 529658.0000 858.8360
0.6864 526984.0000 858.8360
0.6916 526455.0000 858.8360
0.6968 525000.0000 858.8360
0.7020 523600.0000 858.8360
0.7072 522108.0000 858.8360
0.7124 518077.0000 858.8360
0.7176 518016.0000 858.8360
0.7228 514923.0000 858.8360
0.7280 512719.0000 858.8360
0.7332 508009.0000 858.8360
0.7384 505631.0000 858.8360
0.7436 501338.0313 858.8360
0.7488 497402.0000 858.8360
0.7540 490932.0000 858.8360
0.7592 484117.9688 858.8360
0.7644 475184.0000 858.8360
0.7696 463386.0000 858.8360
0.7748 446284.0000 858.8360
0.7800 426523.0000 858.8360
0.7852 397027.0000 858.8360
0.7904 361958.0000 858.8360
0.7956 321077.0000 858.8360
0.8008 278523.0000 858.8360
0.8060 237390.0000 858.8360
0.8112 202018.0000 858.8360
0.8164 172940.0000 858.8360
0.8216 148218.0000 858.8360
0.8268 130235.0000 858.8360
0.8320 114299.0000 858.8360
0.8372 101029.0000 858.8360
0.8424 89864.0000 858.8360
0.8476 81499.0000 858.8360
0.8528 75169.0000 858.8360
0.8580 69616.0000 858.8360
0.8632 1197860.0000 41.8682
0.8684 1066750.0000 41.8682
0.8736 984604.0000 41.8682
0.8788 955290.0000 41.8682
0.8840 924682.0000 41.8682
0.8892 848476.0000 41.8682
0.8944 739044.0000 41.8682
0.8996 646127.0000 41.8682
0.9048 609403.0000 41.8682
0.9100 623107.0000 41.8682
0.9152 638291.0000 41.8682
0.9204 612613.0000 41.8682
0.9256 532935.0000 41.8682
0.9308 443839.0000 41.8682
0.9360 384359.0000 41.8682
0.9412 380007.0000 41.8682
0.9464 413840.0000 41.8682
0.9516 446109.9688 41.8682
0.9568 436555.0000 41.8682
0.9620 385935.0000 41.8682
0.9672 310318.0000 41.8682
0.9724 249330.0000 41.8682
0.9776 231134.0156 41.8682
0.9828 253615.0156 41.8682
0.9880 293613.0000 41.8682
0.9932 319501.0000 41.8682
0.9984 311804.0000 41.8682
1.0036 268108.0000 41.8682
1.0088 208110.0000 41.8682
1.0140 159514.0000 41.8682
1.0192 143037.0000 41.8682
1.0244 158865.0000 41.8682
1.0296 193759.0000 41.8682
1.0348 225436.0156 41.8682
1.0400 233334.0156 41.8682
1.0452 211806.0000 41.8682
1.0504 171121.0000 41.8682
1.0556 125906.0000 41.8682
1.0608 96019.0000 41.8682
1.0660 91198.0000 41.8682
1.0712 109483.0000 41.8682
1.0764 139311.0000 41.8682
1.0816 163126.0000 41.8682
1.0868 170386.0000 41.8682
1.0920 155903.0000 41.8682
1.0972 126247.0000 41.8682
1.1024 91982.0000 41.8682
1.1076 66509.0000 41.8682
1.1128 2658050.0000 1.0000
1.1180 3111860.0000 1.0000
1.1232 4086130.0000 1.0000
1.1284 113078.0078 41.8682
1.1336 125348.0000 41.8682
1.1388 124007.9922 41.8682
1.1440 106837.0000 41.8682
1.1492 82401.0000 41.8682
1.1544 2621540.0000 1.0000
1.1596 1935500.0000 1.0000
1.1648 1842140.0000 1.0000
1.1700 2301110.0000 1.0000
1.1752 3085730.0000 1.0000
1.1804 3832370.0000 1.0000
1.1856 4252450.0000 1.0000
1.1908 4163570.0000 1.0000
1.1960 3584960.0000 1.0000
1.2012 2758050.0000 1.0000
1.2064 1940010.0000 1.0000
1.2116 1408240.0000 1.0000
1.2168 1299800.0000 1.0000
1.2220 1598200.0000 1.0000
1.2272 2169240.0000 1.0000
1.2324 2773050.0000 1.0000
1.2376 3172930.0000 1.0000
1.2428 3220760.0000 1.0000
1.2480 2908260.0000 1.0000
1.2532 2334790.0000 1.0000
1.2584 1693340.0000 1.0000
1.2636 1186650.0000 1.0000
1.2688 959474.0000 1.0000
1.2740 1052200.0000 1.0000
1.2792 1400130.0000 1.0000
1.2844 1865570.0000 1.0000
1.2896 2275450.0000 1.0000
1.2948 2484500.0000 1.0000
1.3000 2425930.0000 1.0000
1.3052 2109840.0000 1.0000
1.3104 1651610.0000 1.0000
1.3156 1178240.0000 1.0000
1.3208 849330.0000 1.0000
1.3260 732724.0000 1.0000
1.3312 849235.0000 1.0000
1.3364 1144260.0000 1.0000
1.3416 1497570.0000 1.0000
1.3468 1796400.0000 1.0000
1.3520 1940810.0000 1.0000
1.3572 1881780.0000 1.0000
1.3624 1639180.0000 1.0000
1.3676 1290180.0000 1.0000
1.3728 936985.0000 1.0000
1.3780 676019.0000 1.0000
1.3832 580419.0000 1.0000
1.3884 660654.0000 1.0000
1.3936 875117.0000 1.0000
1.3988 1151580.0000 1.0000
1.4040 1389460.0000 1.0000
1.4092 1524320.0000 1.0000
1.4144 1508320.0000 1.0000
1.4196 1349500.0000 1.0000
1.4248 1095110.0000 1.0000
1.4300 815479.0000 1.0000
1.4352 591448.0000 1.0000
1.4404 479536.0000 1.0000
1.4456 501146.0000 1.0000
1.4508 640078.0000 1.0000
1.4560 848107.0000 1.0000
1.4612 1049260.0000 1.0000
1.4664 1191100.0000 1.0000
1.4716 1227110.0000 1.0000
1.4768 1146530.0000 1.0000
1.4820 976790.0000 1.0000
1.4872 759170.0000 1.0000
1.4924 557305.0000 1.0000
1.4976 424183.0000 1.0000
1.5028 390619.0000 1.0000
1.5080 456019.0000 1.0000
1.5132 594395.0000 1.0000
1.5184 764269.0000 1.0000
1.5236 907794.0000 1.0000
1.5288 987198.0000 1.0000
1.5340 975450.0000 1.0000
1.5392 881764.0000 1.0000
1.5444 731678.0000 1.0000
1.5496 557349.0000 1.0000
1.5548 412503.0000 1.0000
1.5600 334011.0000 1.0000
1.5652 333234.0000 1.0000
1.5704 407855.0000 1.0000
1.5756 530754.0000 1.0000
1.5808 661395.0000 1.0000
1.5860 765393.0000 1.0000
1.5912 811206.0000 1.0000
1.5964 784958.0000 1.0000
1.6016 697676.0000 1.0000
1.6068 568424.0000 1.0000
1.6120 433968.0000 1.0000
1.6172 326756.0000 1.0000
1.6224 275720.0000 1.0000
1.6276 287187.0000 1.0000
1.6328 354743.0000 1.0000
1.6380 454220.0000 1.0000
1.6432 559614.0000 1.0000
1.6484 637744.0000 1.0000
1.6536 666629.0000 1.0000
1.6588 641666.0000 1.0000
1.6640 564637.0000 1.0000
1.6692 459774.0000 1.0000
1.6744 352748.0000 1.0000
1.6796 270175.0000 1.0000
1.6848 232301.0000 1.0000
1.6900 243790.0000 1.0000
1.6952 300144.0000 1.0000
1.7004 382705.0000 1.0000
1.7056 466598.0000 1.0000
1.7108 529204.0000 1.0000
1.7160 551251.0000 1.0000
1.7212 532757.0000 1.0000
1.7264 469898.0000 1.0000
1.7316 386460.0000 1.0000
1.7368 299897.0000 1.0000
1.7420 232139.0000 1.0000
1.7472 197972.0000 1.0000
1.7524 206205.0000 1.0000
1.7576 249713.0000 1.0000
1.7628 313751.0000 1.0000
1.7680 384444.0000 1.0000
1.7732 436939.0000 1.0000
1.7784 458734.0000 1.0000
1.7836 446377.0000 1.0000
1.7888 399857.0000 1.0000
1.7940 332591.0000 1.0000
1.7992 261525.0000 1.0000
1.8044 203408.0000 1.0000
1.8096 171793.0000 1.0000
1.8148 173334.0000 1.0000
1.8200 205333.0000 1.0000
1.8252 255579.0000 1.0000
1.8304 312469.0000 1.0000
1.8356 357900.0000 1.0000
1.8408 383550.0000 1.0000
1.8460 377094.0000 1.0000
1.8512 344646.0000 1.0000
1.8564 293076.0000 1.0000
1.8616 234612.0000 1.0000
1.8668 183226.0000 1.0000
1.8720 151953.0000 1.0000
1.8772 147001.0000 1.0000
1.8824 167338.0000 1.0000
1.8876 206943.0000 1.0000
1.8928 253714.0000 1.0000
1.8980 294604.0000 1.0000
1.9032 319232.0000 1.0000
1.9084 320051.0000 1.0000
1.9136 298364.0000 1.0000
1.9188 260193.0000 1.0000
1.9240 213649.0000 1.0000
1.9292 169078.0000 1.0000
1.9344 137852.0000 1.0000
1.9396 127178.0000 1.0000
1.9448 137521.0000 1.0000
1.9500 165199.0000 1.0000
1.9552 202549.0000 1.0000
1.9604 238562.0000 1.0000
1.9656 264624.0000 1.0000
1.9708 272295.0000 1.0000
1.9760 261037.0000 1.0000
1.9812 234173.0000 1.0000
1.9864 195779.0000 1.0000
1.9916 157766.0000 1.0000
1.9968 127861.0000 1.0000
2.0020 112770.0000 1.0000
2.0072 114809.0000 1.0000
2.0124 133035.0000 1.0000
2.0176 161881.0000 1.0000
2.0228 192313.0000 1.0000
2.0280 217103.0000 1.0000
2.0332 229615.0000 1.0000
2.0384 226898.0000 1.0000
2.0436 210623.0000 1.0000
2.0488 180738.0000 1.0000
2.0540 150080.0000 1.0000
2.0592 121529.0000 1.0000
2.0644 103729.0000 1.0000
2.0696 99603.0000 1.0000
2.0748 109083.0000 1.0000
2.0800 129319.0000 1.0000
2.0852 154684.0000 1.0000
2.0904 177548.0000 1.0000
2.0956 192923.0000 1.0000
2.1008 196953.0000 1.0000
2.1060 187239.0000 1.0000
2.1112 167351.0000 1.0000
2.1164 141763.0000 1.0000
2.1216 116770.0000 1.0000
2.1268 97712.0000 1.0000
2.1320 89051.0000 1.0000
2.1372 91417.0000 1.0000
2.1424 104107.0000 1.0000
2.1476 123328.0000 1.0000
2.1528 143651.0000 1.0000
2.1580 160324.0000 1.0000
2.1632 168113.0000 1.0000
2.1684 165145.0000 1.0000
2.1736 154222.0000 1.0000
2.1788 134580.0000 1.0000
2.1840 113550.0000 1.0000
2.1892 94681.0000 1.0000
2.1944 82379.0000 1.0000
2.1996 79466.0000 1.0000
2.2048 85578.0000 1.0000
2.2100 99228.0000 1.0000
2.2152 116190.0000 1.0000
2.2204 131641.0000 1.0000
2.2256 142060.0000 1.0000
2.2308 145340.0000 1.0000
2.2360 139265.0000 1.0000
2.2412 126622.0000 1.0000
2.2464 110250.0000 1.0000
2.2516 93276.0000 1.0000
2.2568 79766.0000 1.0000
2.2620 72671.0000 1.0000
2.2672 73152.0000 1.0000
2.2724 80976.0000 1.0000
2.2776 93824.0000 1.0000
2.2828 108356.0000 1.0000
2.2880 119663.0000 1.0000
2.2932 124840.0000 1.0000
2.2984 125419.0000 1.0000
2.3036 117110.0000 1.0000
2.3088 105327.0000 1.0000
2.3140 90543.0000 1.0000
2.3192 77698.0000 1.0000
2.3244 69168.0000 1.0000
2.3296 65582.0000 1.0000
2.3348 68894.0000 1.0000
2.3400 76857.0000 1.0000
2.3452 88285.0000 1.0000
2.3504 99001.0000 1.0000
2.3556 106955.0000 1.0000
2.3608 109515.0000 1.0000
2.3660 106877.0000 1.0000
2.3712 99660.0000 1.0000
2.3764 87568.0000 1.0000
2.3816 76391.0000 1.0000
2.3868 67184.0000 1.0000
2.3920 61509.0000 1.0000
2.3972 60884.0000 1.0000
2.4024 64448.0000 1.0000
2.4076 72285.0000 1.0000
2.4128 82042.0000 1.0000
2.4180 90402.0000 1.0000
2.4232 95299.0000 1.0000
2.4284 95768.0000 1.0000
2.4336 91194.0000 1.0000
2.4388 84754.0000 1.0000
2.4440 75014.0000 1.0000
2.4492 65721.0000 1.0000
2.4544 58458.0000 1.0000
2.4596 55717.0000 1.0000
2.4648 56681.0000 1.0000
2.4700 61106.0000 1.0000
2.4752 68597.0000 1.0000
2.4804 75749.0000 1.0000
2.4856 81627.0000 1.0000
2.4908 84580.0000 1.0000
2.4960 84327.0000 1.0000
2.5012 79881.0000 1.0000
2.5064 72988.0000 1.0000
2.5116 64702.0000 1.0000
2.5168 57327.0000 1.0000
2.5220 53240.0000 1.0000
2.5272 51368.0000 1.0000
2.5324 53184.0000 1.0000
2.5376 57855.0000 1.0000
2.5428 63845.0000 1.0000
2.5480 69963.0000 1.0000
2.5532 73647.0000 1.0000
2.5584 75027.0000 1.0000
2.5636 73712.0000 1.0000
2.5688 68972.0000 1.0000
2.5740 63012.0000 1.0000
2.5792 55794.0000 1.0000
2.5844 50960.0000 1.0000
2.5896 48220.0000 1.0000
2.5948 48003.0000 1.0000
2.6000 49968.0000 1.0000
2.6052 54271.0000 1.0000
2.6104 58270.0000 1.0000
2.6156 63432.0000 1.0000
2.6208 66240.0000 1.0000
2.6260 66560.0000 1.0000
2.6312 64584.0000 1.0000
2.6364 60375.0000 1.0000
2.6416 55490.0000 1.0000
2.6468 50041.0000 1.0000
2.6520 46657.0000 1.0000
2.6572 44215.0000 1.0000
2.6624 44318.0000 1.0000
2.6676 46409.0000 1.0000
2.6728 50172.0000 1.0000
2.6780 54884.0000 1.0000
2.6832 58143.0000 1.0000
2.6884 59630.0000 1.0000
2.6936 59089.0000 1.0000
2.6988 56694.0000 1.0000
2.7040 53119.0000 1.0000
2.7092 48580.0000 1.0000
2.7144 44391.0000 1.0000
2.7196 41724.0000 1.0000
2.7248 40850.0000 1.0000
2.7300 41670.0000 1.0000
2.7352 43437.0000 1.0000
2.7404 46745.0000 1.0000
2.7456 49694.0000 1.0000
2.7508 52592.0000 1.0000
2.7560 52791.0000 1.0000
2.7612 52085.0000 1.0000
2.7664 49683.0000 1.0000
2.7716 46593.0000 1.0000
2.7768 42914.0000 1.0000
2.7820 39817.0000 1.0000
2.7872 38365.0000 1.0000
2.7924 37451.0000 1.0000
2.7976 38693.0000 1.0000
2.8028 40752.0000 1.0000
2.8080 43357.0000 1.0000
2.8132 45504.0000 1.0000
2.8184 47029.0000 1.0000
2.8236 47207.0000 1.0000
2.8288 45832.0000 1.0000
2.8340 43499.0000 1.0000
2.8392 41184.0000 1.0000
2.8444 38435.0000 1.0000
2.8496 36262.0000 1.0000
2.8548 34905.0000 1.0000
2.8600 35004.0000 1.0000
2.8652 35628.0000 1.0000
2.8704 37724.0000 1.0000
2.8756 39307.0000 1.0000
2.8808 41315.0000 1.0000
2.8860 42198.0000 1.0000
2.8912 42262.0000 1.0000
2.8964 41143.0000 1.0000
2.9016 38926.0000 1.0000
2.9068 36583.0000 1.0000
2.9120 34457.0000 1.0000
2.9172 32781.0000 1.0000
2.9224 32047.0000 1.0000
2.9276 32018.0000 1.0000
2.9328 32998.0000 1.0000
2.9380 34518.0000 1.0000
2.9432 36027.0000 1.0000
2.9484 37041.0000 1.0000
2.9536 37610.0000 1.0000
2.9588 37558.0000 1.0000
2.9640 36306.0000 1.0000
2.9692 34284.0000 1.0000
2.9744 32711.0000 1.0000
2.9796 31000.0000 1.0000
2.9848 29516.0000 1.0000
2.9900 29162.0000 1.0000
2.9952 29629.0000 1.0000
3.0004 30374.0000 1.0000
3.0056 31885.0000 1.0000
3.0108 32805.0000 1.0000
3.0160 33969.0000 1.0000
3.0212 33471.0000 1.0000
3.0264 32857.0000 1.0000
3.0316 32122.0000 1.0000
3.0368 30515.0000 1.0000
3.0420 28960.0000 1.0000
3.0472 27763.0000 1.0000
3.0524 26767.0000 1.0000
3.0576 26572.0000 1.0000
3.0628 26820.0000 1.0000
3.0680 27679.0000 1.0000
3.0732 28392.0000 1.0000
3.0784 29131.0000 1.0000
3.0836 30032.0000 1.0000
3.0888 29862.0000 1.0000
3.0940 29347.0000 1.0000
3.0992 28336.0000 1.0000
3.1044 26787.0000 1.0000
3.1096 25712.0000 1.0000
3.1148 24546.0000 1.0000
3.1200 24183.0000 1.0000
3.1252 24104.0000 1.0000
3.1304 24329.0000 1.0000
3.1356 25180.0000 1.0000
3.1408 25990.0000 1.0000
3.1460 26513.0000 1.0000
3.1512 26534.0000 1.0000
3.1564 26496.0000 1.0000
3.1616 25947.0000 1.0000
3.1668 24820.0000 1.0000
3.1720 23956.0000 1.0000
3.1772 22877.0000 1.0000
3.1824 22192.0000 1.0000
3.1876 21963.0000 1.0000
3.1928 21654.0000 1.0000
3.1980 22161.0000 1.0000
3.2032 22655.0000 1.0000
3.2084 23071.0000 1.0000
3.2136 23256.0000 1.0000
3.2188 23383.0000 1.0000
3.2240 23346.0000 1.0000
3.2292 22604.0000 1.0000
3.2344 21995.0000 1.0000
3.2396 20782.0000 1.0000
3.2448 19913.0000 1.0000
3.2500 19726.0000 1.0000
3.2552 19608.0000 1.0000
3.2604 19296.0000 1.0000
3.2656 19667.0000 1.0000
3.2708 20187.0000 1.0000
3.2760 20729.0000 1.0000
3.2812 20731.0000 1.0000
3.2864 20820.0000 1.0000
3.2916 20494.0000 1.0000
3.2968 19996.0000 1.0000
3.3020 19307.0000 1.0000
3.3072 18357.0000 1.0000
3.3124 17740.0000 1.0000
3.3176 17436.0000 1.0000
3.3228 17388.0000 1.0000
3.3280 17360.0000 1.0000
3.3332 17647.0000 1.0000
3.3384 18095.0000 1.0000
3.3436 18117.0000 1.0000
3.3488 18281.0000 1.0000
3.3540 18346.0000 1.0000
3.3592 18080.0000 1.0000
3.3644 17384.0000 1.0000
3.3696 16670.0000 1.0000
3.3748 16248.0000 1.0000
3.3800 15579.0000 1.0000
3.3852 15313.0000 1.0000
3.3904 15319.0000 1.0000
3.3956 15502.0000 1.0000
3.4008 15443.0000 1.0000
3.4060 15996.0000 1.0000
3.4112 15927.0000 1.0000
3.4164 16029.0000 1.0000
3.4216 15690.0000 1.0000
3.4268 15583.0000 1.0000
3.4320 15193.0000 1.0000
3.4372 14483.0000 1.0000
3.4424 14083.0000 1.0000
3.4476 13717.0000 1.0000
3.4528 13452.0000 1.0000
3.4580 13338.0000 1.0000
3.4632 13314.0000 1.0000
3.4684 13733.0000 1.0000
3.4736 13709.0000 1.0000
3.4788 13839.0000 1.0000
3.4840 13831.0000 1.0000
3.4892 13699.0000 1.0000
3.4944 13255.0000 1.0000
3.4996 13054.0000 1.0000
3.5048 12526.0000 1.0000
3.5100 12268.0000 1.0000
3.5152 11936.0000 1.0000
3.5204 11679.0000 1.0000
3.5256 11679.0000 1.0000
3.5308 11770.0000 1.0000
3.5360 12040.0000 1.0000
3.5412 12272.0000 1.0000
3.5464 12110.0000 1.0000
3.5516 12068.0000 1.0000
3.5568 11924.0000 1.0000
3.5620 11538.0000 1.0000
3.5672 11221.0000 1.0000
3.5724 10815.0000 1.0000
3.5776 10607.0000 1.0000
3.5828 10286.0000 1.0000
3.5880 10231.0000 1.0000
3.5932 10397.0000 1.0000
3.5984 10287.0000 1.0000
3.6036 10391.0000 1.0000
3.6088 10547.0000 1.0000
3.6140 10400.0000 1.0000
3.6192 10522.0000 1.0000
3.6244 10061.0000 1.0000
3.6296 9875.0000 1.0000
3.6348 9673.0000 1.0000
3.6400 9313.0000 1.0000
3.6452 9177.0000 1.0000
3.6504 9020.0000 1.0000
3.6556 8985.0000 1.0000
3.6608 8953.0000 1.0000
3.6660 8969.0000 1.0000
3.6712 9028.0000 1.0000
3.6764 9112.0000 1.0000
3.6816 8890.0000 1.0000
3.6868 9097.0000 1.0000
3.6920 8697.0000 1.0000
3.6972 8660.0000 1.0000
3.7024 8302.0000 1.0000
3.7076 7971.0000 1.0000
3.7128 7634.0000 1.0000
3.7180 7836.0000 1.0000
3.7232 7711.0000 1.0000
3.7284 7689.0000 1.0000
3.7336 7933.0000 1.0000
3.7388 7646.0000 1.0000
3.7440 7865.0000 1.0000
3.7492 7640.0000 1.0000
3.7544 7579.0000 1.0000
3.7596 7422.0000 1.0000
3.7648 7068.0000 1.0000
3.7700 7158.0000 1.0000
3.7752 6885.0000 1.0000
3.7804 6692.0000 1.0000
3.7856 6654.0000 1.0000
3.7908 6467.0000 1.0000
3.7960 6592.0000 1.0000
3.8012 6726.0000 1.0000
3.8064 6794.0000 1.0000
3.8116 6609.0000 1.0000
3.8168 6503.0000 1.0000
3.8220 6506.0000 1.0000
3.8272 6353.0000 1.0000
3.8324 6236.0000 1.0000
3.8376 6067.0000 1.0000
3.8428 6003.0000 1.0000
3.8480 5916.0000 1.0000
3.8532 5780.0000 1.0000
3.8584 5721.0000 1.0000
3.8636 5787.0000 1.0000
3.8688 5751.0000 1.0000
3.8740 5686.0000 1.0000
3.8792 5734.0000 1.0000
3.8844 5728.0000 1.0000
3.8896 5653.0000 1.0000
3.8948 5499.0000 1.0000
3.9000 5327.0000 1.0000
3.9052 5203.0000 1.0000
3.9104 5055.0000 1.0000
3.9156 5015.0000 1.0000
3.9208 5051.0000 1.0000
3.9260 4875.0000 1.0000
3.9312 5012.0000 1.0000
3.9364 5053.0000 1.0000
3.9416 4990.0000 1.0000
3.9468 4990.0000 1.0000
3.9520 4864.0000 1.0000
3.9572 4858.0000 1.0000
3.9624 4738.0000 1.0000
3.9676 4673.0000 1.0000
3.9728 4580.0000 1.0000
3.9780 4569.0000 1.0000
3.9832 4409.0000 1.0000
3.9884 4315.0000 1.0000
3.9936 4269.0000 1.0000
3.9988 4351.0000 1.0000
4.0040 4304.0000 1.0000
4.0092 4426.0000 1.0000
4.0144 4471.0000 1.0000
4.0196 4287.0000 1.0000
4.0248 4149.0000 1.0000
4.0300 4077.0000 1.0000
4.0352 4077.0000 1.0000
4.0404 3998.0000 1.0000
4.0456 4026.0000 1.0000
4.0508 3865.0000 1.0000
4.0560 3862.0000 1.0000
4.0612 3782.0000 1.0000
4.0664 3791.0000 1.0000
4.0716 3838.0000 1.0000
4.0768 3798.0000 1.0000
4.0820 3717.0000 1.0000
4.0872 3764.0000 1.0000
4.0924 3850.0000 1.0000
4.0976 3646.0000 1.0000
4.1028 3601.0000 1.0000
4.1080 3618.0000 1.0000
4.1132 3440.0000 1.0000
4.1184 3303.0000 1.0000
4.1236 3370.0000 1.0000
4.1288 3387.0000 1.0000
4.1340 3401.0000 1.0000
4.1392 3459.0000 1.0000
4.1444 3363.0000 1.0000
4.1496 3412.0000 1.0000
4.1548 3325.0000 1.0000
4.1600 3304.0000 1.0000
4.1652 3293.0000 1.0000
4.1704 3187.0000 1.0000
4.1756 3194.0000 1.0000
4.1808 3081.0000 1.0000
4.1860 2986.0000 1.0000
4.1912 3157.0000 1.0000
4.1964 3055.0000 1.0000
4.2016 3016.0000 1.0000
4.2068 3176.0000 1.0000
4.2120 3057.0000 1.0000
4.2172 3080.0000 1.0000
4.2224 3188.0000 1.0000
4.2276 3101.0000 1.0000
4.2328 2934.0000 1.0000
4.2380 2936.0000 1.0000
4.2432 2738.0000 1.0000
4.2484 2885.0000 1.0000
4.2536 2802.0000 1.0000
4.2588 2800.0000 1.0000
4.2640 2772.0000 1.0000
4.2692 2865.0000 1.0000
4.2744 2834.0000 1.0000
4.2796 2857.0000 1.0000
4.2848 2830.0000 1.0000
4.2900 2870.0000 1.0000
4.2952 2839.0000 1.0000
4.3004 2756.0000 1.0000
4.3056 2776.0000 1.0000
4.3108 2641.0000 1.0000
4.3160 2654.0000 1.0000
4.3212 2535.0000 1.0000
4.3264 2583.0000 1.0000
4.3316 2619.0000 1.0000
4.3368 2699.0000 1.0000
4.3420 2643.0000 1.0000
4.3472 2679.0000 1.0000
4.3524 2606.0000 1.0000
4.3576 2665.0000 1.0000
4.3628 2560.0000 1.0000
4.3680 2563.0000 1.0000
4.3732 2547.0000 1.0000
4.3784 2501.0000 1.0000
4.3836 2496.0000 1.0000
4.3888 2483.0000 1.0000
4.3940 2513.0000 1.0000
4.3992 2570.0000 1.0000
4.4044 2524.0000 1.0000
4.4096 2511.0000 1.0000
4.4148 2533.0000 1.0000
4.4200 2529.0000 1.0000
4.4252 2502.0000 1.0000
4.4304 2418.0000 1.0000
4.4356 2392.0000 1.0000
4.4408 2404.0000 1.0000
4.4460 2376.0000 1.0000
4.4512 2384.0000 1.0000
4.4564 2356.0000 1.0000
4.4616 2456.0000 1.0000
4.4668 2464.0000 1.0000
4.4720 2512.0000 1.0000
4.4772 2392.0000 1.0000
4.4824 2400.0000 1.0000
4.4876 2395.0000 1.0000
4.4928 2420.0000 1.0000
4.4980 2440.0000 1.0000
4.5032 2389.0000 1.0000
4.5084 2318.0000 1.0000
4.5136 2312.0000 1.0000
4.5188 2295.0000 1.0000
4.5240 2440.0000 1.0000
4.5292 2456.0000 1.0000
4.5344 2266.0000 1.0000
4.5396 2458.0000 1.0000
4.5448 2322.0000 1.0000
4.5500 2334.0000 1.0000
4.5552 2427.0000 1.0000
4.5604 2428.0000 1.0000
4.5656 2327.0000 1.0000
4.5708 2317.0000 1.0000
4.5760 2274.0000 1.0000
4.5812 2300.0000 1.0000
4.5864 2216.0000 1.0000
4.5916 2308.0000 1.0000
4.5968 2240.0000 1.0000
4.6020 2387.0000 1.0000
4.6072 2306.0000 1.0000
4.6124 2347.0000 1.0000
4.6176 2373.0000 1.0000
4.6228 2361.0000 1.0000
4.6280 2306.0000 1.0000
4.6332 2313.0000 1.0000
4.6384 2257.0000 1.0000
4.6436 2304.0000 1.0000
4.6488 2175.0000 1.0000
4.6540 2187.0000 1.0000
4.6592 2248.0000 1.0000
4.6644 2235.0000 1.0000
4.6696 2349.0000 1.0000
4.6748 2341.0000 1.0000
4.6800 2335.0000 1.0000
4.6852 2277.0000 1.0000
4.6904 2306.0000 1.0000
4.6956 2373.0000 1.0000
4.7008 2285.0000 1.0000
4.7060 2271.0000 1.0000
4.7112 2203.0000 1.0000
4.7164 2286.0000 1.0000
4.7216 2236.0000 1.0000
4.7268 2197.0000 1.0000
4.7320 2115.0000 1.0000
4.7372 2222.0000 1.0000
4.7424 2403.0000 1.0000
4.7476 2254.0000 1.0000
4.7528 2290.0000 1.0000
4.7580 2279.0000 1.0000
4.7632 2332.0000 1.0000
4.7684 2211.0000 1.0000
4.7736 2197.0000 1.0000
4.7788 2232.0000 1.0000
4.7840 2314.0000 1.0000
4.7892 2132.0000 1.0000
4.7944 2164.0000 1.0000
4.7996 2143.0000 1.0000
4.8048 2190.0000 1.0000
4.8100 2273.0000 1.0000
4.8152 2205.0000 1.0000
4.8204 2362.0000 1.0000
4.8256 2233.0000 1.0000
4.8308 2158.0000 1.0000
4.8360 2119.0000 1.0000
4.8412 2234.0000 1.0000
4.8464 2165.0000 1.0000
4.8516 2181.0000 1.0000
4.8568 2199.0000 1.0000
4.8620 2179.0000 1.0000
4.8672 2148.0000 1.0000
4.8724 2176.0000 1.0000
4.8776 2144.0000 1.0000
4.8828 2263.0000 1.0000
4.8880 2265.0000 1.0000
4.8932 2202.0000 1.0000
4.8984 2161.0000 1.0000
4.9036 2193.0000 1.0000
4.9088 2154.0000 1.0000
4.9140 2140.0000 1.0000
4.9192 2087.0000 1.0000
4.9244 2218.0000 1.0000
4.9296 2115.0000 1.0000
4.9348 2090.0000 1.0000
4.9400 2137.0000 1.0000
4.9452 2196.0000 1.0000
4.9504 2190.0000 1.0000
4.9556 2164.0000 1.0000
4.9608 2113.0000 1.0000
4.9660 2189.0000 1.0000
4.9712 2204.0000 1.0000
4.9764 2150.0000 1.0000
4.9816 2122.0000 1.0000
4.9868 2069.0000 1.0000
4.9920 2130.0000 1.0000
4.9972 2031.0000 1.0000
5.0024 2058.0000 1.0000
5.0076 2152.0000 1.0000
5.0128 2051.0000 1.0000
5.0180 2130.0000 1.0000
5.0232 2120.0000 1.0000
5.0284 2210.0000 1.0000
5.0336 2104.0000 1.0000
5.0388 2064.0000 1.0000
5.0440 2050.0000 1.0000
5.0492 2060.0000 1.0000
5.0544 2081.0000 1.0000
5.0596 2028.0000 1.0000
5.0648 2077.0000 1.0000
5.0700 2041.0000 1.0000
5.0752 2030.0000 1.0000
5.0804 2063.0000 1.0000
5.0856 2122.0000 1.0000
5.0908 2049.0000 1.0000
5.0960 2164.0000 1.0000
5.1012 2129.0000 1.0000
5.1064 1941.0000 1.0000
5.1116 1975.0000 1.0000
5.1168 2030.0000 1.0000
5.1220 1963.0000 1.0000
5.1272 1910.0000 1.0000
5.1324 1967.0000 1.0000
5.1376 1949.0000 1.0000
5.1428 1975.0000 1.0000
5.1480 2037.0000 1.0000
5.1532 1993.0000 1.0000
5.1584 1986.0000 1.0000
5.1636 1982.0000 1.0000
5.1688 1934.0000 1.0000
5.1740 1885.0000 1.0000
5.1792 1973.0000 1.0000
5.1844 1925.0000 1.0000
5.1896 1884.0000 1.0000
5.1948 1888.0000 1.0000
5.2000 1876.0000 1.0000
5.2052 1824.0000 1.0000
5.2104 1860.0000 1.0000
5.2156 1909.0000 1.0000
5.2208 1889.0000 1.0000
5.2260 1943.0000 1.0000
5.2312 1819.0000 1.0000
5.2364 1896.0000 1.0000
5.2416 1818.0000 1.0000
5.2468 1764.0000 1.0000
5.2520 1804.0000 1.0000
5.2572 1813.0000 1.0000
5.2624 1898.0000 1.0000
5.2676 1821.0000 1.0000
5.2728 1754.0000 1.0000
5.2780 1818.0000 1.0000
5.2832 1848.0000 1.0000
5.2884 1789.0000 1.0000
5.2936 1853.0000 1.0000
5.2988 1736.0000 1.0000
5.3040 1806.0000 1.0000
5.3092 1805.0000 1.0000
5.3144 1806.0000 1.0000
5.3196 1735.0000 1.0000
5.3248 1730.0000 1.0000
5.3300 1581.0000 1.0000
5.3352 1699.0000 1.0000
5.3404 1729.0000 1.0000
5.3456 1673.0000 1.0000
5.3508 1654.0000 1.0000
5.3560 1737.0000 1.0000
5.3612 1686.0000 1.0000
5.3664 1618.0000 1.0000
5.3716 1654.0000 1.0000
5.3768 1645.0000 1.0000
5.3820 1584.0000 1.0000
5.3872 1644.0000 1.0000
5.3924 1577.0000 1.0000
5.3976 1635.0000 1.0000
5.4028 1559.0000 1.0000
5.4080 1564.0000 1.0000
5.4132 1529.0000 1.0000
5.4184 1588.0000 1.0000
5.4236 1562.0000 1.0000
5.4288 1596.0000 1.0000
5.4340 1524.0000 1.0000
5.4392 1553.0000 1.0000
5.4444 1539.0000 1.0000
5.4496 1526.0000 1.0000
5.4548 1455.0000 1.0000
5.4600 1504.0000 1.0000
5.4652 1455.0000 1.0000
5.4704 1517.0000 1.0000
5.4756 1511.0000 1.0000
5.4808 1381.0000 1.0000
5.4860 1417.0000 1.0000
5.4912 1421.0000 1.0000
5.4964 1446.0000 1.0000
5.5016 1462.0000 1.0000
5.5068 1468.0000 1.0000
5.5120 1443.0000 1.0000
5.5172 1358.0000 1.0000
5.5224 1286.0000 1.0000
5.5276 1359.0000 1.0000
5.5328 1304.0000 1.0000
5.5380 1357.0000 1.0000
5.5432 1317.0000 1.0000
5.5484 1326.0000 1.0000
5.5536 1358.0000 1.0000
5.5588 1344.0000 1.0000
5.5640 1277.0000 1.0000
5.5692 1301.0000 1.0000
5.5744 1352.0000 1.0000
5.5796 1261.0000 1.0000
5.5848 1235.0000 1.0000
5.5900 1255.0000 1.0000
5.5952 1271.0000 1.0000
5.6004 1214.0000 1.0000
5.6056 1233.0000 1.0000
5.6108 1236.0000 1.0000
5.6160 1204.0000 1.0000
5.6212 1176.0000 1.0000
5.6264 1156.0000 1.0000
5.6316 1163.0000 1.0000
5.6368 1203.0000 1.0000
5.6420 1156.0000 1.0000
5.6472 1208.0000 1.0000
5.6524 1134.0000 1.0000
5.6576 1075.0000 1.0000
5.6628 1066.0000 1.0000
5.6680 1058.0000 1.0000
5.6732 1094.0000 1.0000
5.6784 1079.0000 1.0000
5.6836 1130.0000 1.0000
5.6888 1089.0000 1.0000
5.6940 1032.0000 1.0000
5.6992 1067.0000 1.0000
5.7044 1032.0000 1.0000
5.7096 1066.0000 1.0000
5.7148 1040.0000 1.0000
5.7200 1032.0000 1.0000
5.7252 1024.0000 1.0000
5.7304 1003.0000 1.0000
5.7356 955.0000 1.0000
5.7408 914.0000 1.0000
5.7460 975.0000 1.0000
5.7512 962.0000 1.0000
5.7564 951.0000 1.0000
5.7616 957.0000 1.0000
5.7668 924.0000 1.0000
5.7720 941.0000 1.0000
5.7772 885.0000 1.0000
5.7824 909.0000 1.0000
5.7876 875.0000 1.0000
5.7928 909.0000 1.0000
5.7980 892.0000 1.0000
5.8032 867.0000 1.0000
5.8084 884.0000 1.0000
5.8136 801.0000 1.0000
5.8188 862.0000 1.0000
5.8240 814.0000 1.0000
5.8292 792.0000 1.0000
5.8344 786.0000 1.0000
5.8396 819.0000 1.0000
5.8448 803.0000 1.0000
5.8500 781.0000 1.0000
5.8552 802.0000 1.0000
5.8604 779.0000 1.0000
5.8656 753.0000 1.0000
5.8708 693.0000 1.0000
5.8760 715.0000 1.0000
5.8812 723.0000 1.0000
5.8864 741.0000 1.0000
5.8916 760.0000 1.0000
5.8968 661.0000 1.0000
5.9020 676.0000 1.0000
5.9072 679.0000 1.0000
5.9124 681.0000 1.0000
5.9176 649.0000 1.0000
5.9228 669.0000 1.0000
5.9280 626.0000 1.0000
5.9332 651.0000 1.0000
5.9384 611.0000 1.0000
5.9436 639.0000 1.0000
5.9488 656.0000 1.0000
5.9540 615.0000 1.0000
5.9592 599.0000 1.0000
5.9644 612.0000 1.0000
5.9696 573.0000 1.0000
5.9748 602.0000 1.0000
5.9800 601.0000 1.0000
5.9852 559.0000 1.0000
5.9904 560.0000 1.0000
5.9956 583.0000 1.0000
6.0008 543.0000 1.0000
6.0060 540.0000 1.0000
6.0112 569.0000 1.0000
6.0164 547.0000 1.0000
6.0216 513.0000 1.0000
6.0268 528.0000 1.0000
6.0320 497.0000 1.0000
6.0372 522.0000 1.0000
6.0424 488.0000 1.0000
6.0476 488.0000 1.0000
6.0528 535.0000 1.0000
6.0580 492.0000 1.0000
6.0632 458.0000 1.0000
6.0684 494.0000 1.0000
6.0736 482.0000 1.0000
6.0788 466.0000 1.0000
6.0840 457.0000 1.0000
6.0892 491.0000 1.0000
6.0944 429.0000 1.0000
6.0996 447.0000 1.0000
6.1048 400.0000 1.0000
6.1100 379.0000 1.0000
6.1152 425.0000 1.0000
6.1204 448.0000 1.0000
6.1256 403.0000 1.0000
6.1308 410.0000 1.0000
6.1360 377.0000 1.0000
6.1412 396.0000 1.0000
6.1464 423.0000 1.0000
6.1516 385.0000 1.0000
6.1568 366.0000 1.0000
6.1620 349.0000 1.0000
6.1672 359.0000 1.0000
6.1724 358.0000 1.0000
6.1776 380.0000 1.0000
6.1828 342.0000 1.0000
6.1880 337.0000 1.0000
6.1932 324.0000 1.0000
6.1984 333.0000 1.0000
6.2036 323.0000 1.0000
6.2088 334.0000 1.0000
6.2140 302.0000 1.0000
6.2192 321.0000 1.0000
6.2244 316.0000 1.0000
6.2296 312.0000 1.0000
6.2348 305.0000 1.0000
6.2400 314.0000 1.0000
6.2452 354.0000 1.0000
6.2504 275.0000 1.0000
6.2556 270.0000 1.0000
6.2608 304.0000 1.0000
6.2660 284.0000 1.0000
6.2712 266.0000 1.0000
6.2764 251.0000 1.0000
6.2816 279.0000 1.0000
6.2868 269.0000 1.0000
6.2920 260.0000 1.0000
6.2972 241.0000 1.0000
6.3024 249.0000 1.0000
6.3076 255.0000 1.0000
6.3128 238.0000 1.0000
6.3180 242.0000 1.0000
6.3232 251.0000 1.0000
6.3284 231.0000 1.0000
6.3336 253.0000 1.0000
6.3388 197.0000 1.0000
6.3440 217.0000 1.0000
6.3492 208.0000 1.0000
6.3544 235.0000 1.0000
6.3596 219.0000 1.0000
6.3648 241.0000 1.0000
6.3700 230.0000 1.0000
6.3752 215.0000 1.0000
6.3804 222.0000 1.0000
6.3856 207.0000 1.0000
6.3908 222.0000 1.0000
6.3960 192.0000 1.0000
6.4012 197.0000 1.0000
6.4064 209.0000 1.0000
6.4116 211.0000 1.0000
6.4168 193.0000 1.0000
6.4220 166.0000 1.0000
6.4272 158.0000 1.0000
6.4324 165.0000 1.0000
6.4376 183.0000 1.0000
6.4428 169.0000 1.0000
6.4480 154.0000 1.0000
6.4532 168.0000 1.0000
6.4584 149.0000 1.0000
6.4636 160.0000 1.0000
6.4688 155.0000 1.0000
6.4740 142.0000 1.0000
6.4792 176.0000 1.0000
6.4844 176.0000 1.0000
6.4896 141.0000 1.0000
6.4948 142.0000 1.0000
6.5000 175.0000 1.0000
6.5052 166.0000 1.0000
6.5104 165.0000 1.0000
6.5156 159.0000 1.0000
6.5208 179.0000 1.0000
6.5260 119.0000 1.0000
6.5312 142.0000 1.0000
6.5364 131.0000 1.0000
6.5416 138.0000 1.0000
6.5468 137.0000 1.0000
6.5520 150.0000 1.0000
6.5572 142.0000 1.0000
6.5624 136.0000 1.0000
6.5676 136.0000 1.0000
6.5728 142.0000 1.0000
6.5780 136.0000 1.0000
6.5832 133.0000 1.0000
6.5884 151.0000 1.0000
6.5936 140.0000 1.0000
6.5988 140.0000 1.0000
6.6040 133.0000 1.0000
6.6092 135.0000 1.0000
6.6144 160.0000 1.0000
6.6196 133.0000 1.0000
6.6248 136.0000 1.0000
6.6300 118.0000 1.0000
6.6352 127.0000 1.0000
6.6404 115.0000 1.0000
6.6456 131.0000 1.0000
6.6508 122.0000 1.0000
6.6560 120.0000 1.0000
6.6612 131.0000 1.0000
6.6664 151.0000 1.0000
6.6716 130.0000 1.0000
6.6768 118.0000 1.0000
6.6820 116.0000 1.0000
6.6872 133.0000 1.0000
6.6924 134.0000 1.0000
6.6976 117.0000 1.0000
6.7028 122.0000 1.0000
6.7080 95.0000 1.0000
6.7132 132.0000 1.0000
6.7184 107.0000 1.0000
6.7236 115.0000 1.0000
6.7288 96.0000 1.0000
6.7340 124.0000 1.0000
6.7392 118.0000 1.0000
6.7444 123.0000 1.0000
6.7496 120.0000 1.0000
6.7548 108.0000 1.0000
6.7600 132.0000 1.0000
6.7652 102.0000 1.0000
6.7704 101.0000 1.0000
6.7756 125.0000 1.0000
6.7808 118.0000 1.0000
6.7860 129.0000 1.0000
6.7912 126.0000 1.0000
6.7964 115.0000 1.0000
6.8016 136.0000 1.0000
6.8068 117.0000 1.0000
6.8120 126.0000 1.0000
6.8172 124.0000 1.0000
6.8224 138.0000 1.0000
6.8276 126.0000 1.0000
6.8328 141.0000 1.0000
6.8380 125.0000 1.0000
6.8432 121.0000 1.0000
6.8484 119.0000 1.0000
6.8536 120.0000 1.0000
6.8588 124.0000 1.0000
6.8640 114.0000 1.0000
6.8692 115.0000 1.0000
6.8744 130.0000 1.0000
6.8796 123.0000 1.0000
6.8848 131.0000 1.0000
6.8900 123.0000 1.0000
6.8952 116.0000 1.0000
6.9004 130.0000 1.0000
6.9056 111.0000 1.0000
6.9108 127.0000 1.0000
6.9160 125.0000 1.0000
6.9212 107.0000 1.0000
6.9264 119.0000 1.0000
6.9316 148.0000 1.0000
6.9368 141.0000 1.0000
6.9420 128.0000 1.0000
6.9472 128.0000 1.0000
6.9524 127.0000 1.0000
6.9576 129.0000 1.0000
6.9628 141.0000 1.0000
6.9680 118.0000 1.0000
6.9732 121.0000 1.0000
6.9784 157.0000 1.0000
6.9836 141.0000 1.0000
6.9888 123.0000 1.0000
6.9940 135.0000 1.0000
6.9992 123.0000 1.0000
7.0044 131.0000 1.0000
7.0096 127.0000 1.0000
7.0148 130.0000 1.0000
7.0200 160.0000 1.0000
7.0252 130.0000 1.0000
7.0304 145.0000 1.0000
7.0356 133.0000 1.0000
7.0408 129.0000 1.0000
7.0460 132.0000 1.0000
7.0512 113.0000 1.0000
7.0564 147.0000 1.0000
7.0616 139.0000 1.0000
7.0668 152.0000 1.0000
7.0720 127.0000 1.0000
7.0772 131.0000 1.0000
7.0824 139.0000 1.0000
7.0876 145.0000 1.0000
7.0928 133.0000 1.0000
7.0980 149.0000 1.0000
7.1032 144.0000 1.0000
7.1084 147.0000 1.0000
7.1136 130.0000 1.0000
7.1188 142.0000 1.0000
7.1240 162.0000 1.0000
7.1292 165.0000 1.0000
7.1344 146.0000 1.0000
7.1396 133.0000 1.0000
7.1448 150.0000 1.0000
7.1500 154.0000 1.0000
7.1552 144.0000 1.0000
7.1604 155.0000 1.0000
7.1656 152.0000 1.0000
7.1708 132.0000 1.0000
7.1760 135.0000 1.0000
7.1812 140.0000 1.0000
7.1864 149.0000 1.0000
7.1916 156.0000 1.0000
7.1968 148.0000 1.0000
7.2020 143.0000 1.0000
7.2072 163.0000 1.0000
7.2124 128.0000 1.0000
7.2176 133.0000 1.0000
7.2228 149.0000 1.0000
7.2280 144.0000 1.0000
7.2332 166.0000 1.0000
7.2384 144.0000 1.0000
7.2436 165.0000 1.0000
7.2488 146.0000 1.0000
7.2540 137.0000 1.0000
7.2592 122.0000 1.0000
7.2644 125.0000 1.0000
7.2696 134.0000 1.0000
7.2748 144.0000 1.0000
7.2800 168.0000 1.0000
7.2852 141.0000 1.0000
7.2904 146.0000 1.0000
7.2956 166.0000 1.0000
7.3008 169.0000 1.0000
7.3060 145.0000 1.0000
7.3112 160.0000 1.0000
7.3164 147.0000 1.0000
7.3216 159.0000 1.0000
7.3268 154.0000 1.0000
7.3320 168.0000 1.0000
7.3372 143.0000 1.0000
7.3424 158.0000 1.0000
7.3476 137.0000 1.0000
7.3528 166.0000 1.0000
7.3580 174.0000 1.0000
7.3632 157.0000 1.0000
7.3684 175.0000 1.0000
7.3736 160.0000 1.0000
7.3788 154.0000 1.0000
7.3840 172.0000 1.0000
7.3892 153.0000 1.0000
7.3944 157.0000 1.0000
7.3996 156.0000 1.0000
7.4048 161.0000 1.0000
7.4100 131.0000 1.0000
7.4152 159.0000 1.0000
7.4204 141.0000 1.0000
7.4256 168.0000 1.0000
7.4308 157.0000 1.0000
7.4360 149.0000 1.0000
7.4412 151.0000 1.0000
7.4464 166.0000 1.0000
7.4516 150.0000 1.0000
7.4568 141.0000 1.0000
7.4620 161.0000 1.0000
7.4672 138.0000 1.0000
7.4724 150.0000 1.0000
7.4776 158.0000 1.0000
7.4828 157.0000 1.0000
7.4880 149.0000 1.0000
7.4932 142.0000 1.0000
7.4984 150.0000 1.0000
7.5036 137.0000 1.0000
7.5088 152.0000 1.0000
7.5140 173.0000 1.0000
7.5192 148.0000 1.0000
7.5244 127.0000 1.0000
7.5296 164.0000 1.0000
7.5348 164.0000 1.0000
7.5400 131.0000 1.0000
7.5452 161.0000 1.0000
7.5504 141.0000 1.0000
7.5556 152.0000 1.0000
7.5608 140.0000 1.0000
7.5660 126.0000 1.0000
7.5712 152.0000 1.0000
7.5764 152.0000 1.0000
7.5816 159.0000 1.0000
7.5868 150.0000 1.0000
7.5920 149.0000 1.0000
7.5972 142.0000 1.0000
7.6024 152.0000 1.0000
7.6076 154.0000 1.0000
7.6128 154.0000 1.0000
7.6180 166.0000 1.0000
7.6232 147.0000 1.0000
7.6284 133.0000 1.0000
7.6336 126.0000 1.0000
7.6388 133.0000 1.0000
7.6440 160.0000 1.0000
7.6492 145.0000 1.0000
7.6544 119.0000 1.0000
7.6596 114.0000 1.0000
7.6648 140.0000 1.0000
7.6700 115.0000 1.0000
7.6752 147.0000 1.0000
7.6804 155.0000 1.0000
7.6856 134.0000 1.0000
7.6908 128.0000 1.0000
7.6960 147.0000 1.0000
7.7012 131.0000 1.0000
7.7064 131.0000 1.0000
7.7116 127.0000 1.0000
7.7168 125.0000 1.0000
7.7220 137.0000 1.0000
7.7272 119.0000 1.0000
7.7324 132.0000 1.0000
7.7376 134.0000 1.0000
7.7428 138.0000 1.0000
7.7480 132.0000 1.0000
7.7532 118.0000 1.0000
7.7584 127.0000 1.0000
7.7636 139.0000 1.0000
7.7688 106.0000 1.0000
7.7740 146.0000 1.0000
7.7792 134.0000 1.0000
7.7844 118.0000 1.0000
7.7896 130.0000 1.0000
7.7948 137.0000 1.0000
7.8000 116.0000 1.0000
7.8052 123.0000 1.0000
7.8104 131.0000 1.0000
7.8156 113.0000 1.0000
7.8208 122.0000 1.0000
7.8260 110.0000 1.0000
7.8312 108.0000 1.0000
7.8364 123.0000 1.0000
7.8416 127.0000 1.0000
7.8468 112.0000 1.0000
7.8520 115.0000 1.0000
7.8572 120.0000 1.0000
7.8624 107.0000 1.0000
7.8676 111.0000 1.0000
7.8728 117.0000 1.0000
7.8780 97.0000 1.0000
7.8832 110.0000 1.0000
7.8884 115.0000 1.0000
7.8936 115.0000 1.0000
7.8988 98.0000 1.0000
7.9040 111.0000 1.0000
7.9092 117.0000 1.0000
7.9144 93.0000 1.0000
7.9196 88.0000 1.0000
7.9248 102.0000 1.0000
7.9300 107.0000 1.0000
7.9352 101.0000 1.0000
7.9404 101.0000 1.0000
7.9456 100.0000 1.0000
7.9508 110.0000 1.0000
7.9560 108.0000 1.0000
7.9612 111.0000 1.0000
7.9664 86.0000 1.0000
7.9716 80.0000 1.0000
7.9768 86.0000 1.0000
7.9820 85.0000 1.0000
7.9872 98.0000 1.0000
7.9924 110.0000 1.0000
7.9976 86.0000 1.0000
8.0028 88.0000 1.0000
8.0080 90.0000 1.0000
8.0132 100.0000 1.0000
8.0184 113.0000 1.0000
8.0236 73.0000 1.0000
8.0288 103.0000 1.0000
8.0340 84.0000 1.0000
8.0392 84.0000 1.0000
8.0444 79.0000 1.0000
8.0496 92.0000 1.0000
8.0548 71.0000 1.0000
8.0600 63.0000 1.0000
8.0652 77.0000 1.0000
8.0704 86.0000 1.0000
8.0756 64.0000 1.0000
8.0808 90.0000 1.0000
8.0860 76.0000 1.0000
8.0912 81.0000 1.0000
8.0964 105.0000 1.0000
8.1016 78.0000 1.0000
8.1068 84.0000 1.0000
8.1120 73.0000 1.0000
8.1172 58.0000 1.0000
8.1224 107.0000 1.0000
8.1276 69.0000 1.0000
8.1328 75.0000 1.0000
8.1380 74.0000 1.0000
8.1432 76.0000 1.0000
8.1484 80.0000 1.0000
8.1536 50.0000 1.0000
8.1588 78.0000 1.0000
8.1640 66.0000 1.0000
8.1692 78.0000 1.0000
8.1744 69.0000 1.0000
8.1796 67.0000 1.0000
8.1848 61.0000 1.0000
8.1900 67.0000 1.0000
8.1952 59.0000 1.0000
8.2004 77.0000 1.0000
8.2056 50.0000 1.0000
8.2108 64.0000 1.0000
8.2160 69.0000 1.0000
8.2212 63.0000 1.0000
8.2264 66.0000 1.0000
8.2316 79.0000 1.0000
8.2368 65.0000 1.0000
8.2420 51.0000 1.0000
8.2472 69.0000 1.0000
8.2524 38.0000 1.0000
8.2576 51.0000 1.0000
8.2628 55.0000 1.0000
8.2680 52.0000 1.0000
8.2732 51.0000 1.0000
8.2784 58.0000 1.0000
8.2836 58.0000 1.0000
8.2888 56.0000 1.0000
8.2940 40.0000 1.0000
8.2992 44.0000 1.0000
8.3044 58.0000 1.0000
8.3096 39.0000 1.0000
8.3148 65.0000 1.0000
8.3200 38.0000 1.0000
8.3252 47.0000 1.0000
8.3304 48.0000 1.0000
8.3356 52.0000 1.0000
8.3408 48.0000 1.0000
8.3460 38.0000 1.0000
8.3512 51.0000 1.0000
8.3564 47.0000 1.0000
8.3616 43.0000 1.0000
8.3668 42.0000 1.0000
8.3720 29.0000 1.0000
8.3772 30.0000 1.0000
8.3824 58.0000 1.0000
8.3876 38.0000 1.0000
8.3928 33.0000 1.0000
8.3980 38.0000 1.0000
8.4032 33.0000 1.0000
8.4084 47.0000 1.0000
8.4136 39.0000 1.0000
8.4188 41.0000 1.0000
8.4240 31.0000 1.0000
8.4292 26.0000 1.0000
8.4344 33.0000 1.0000
8.4396 21.0000 1.0000
8.4448 32.0000 1.0000
8.4500 40.0000 1.0000
8.4552 27.0000 1.0000
8.4604 27.0000 1.0000
8.4656 44.0000 1.0000
8.4708 36.0000 1.0000
8.4760 25.0000 1.0000
8.4812 42.0000 1.0000
8.4864 36.0000 1.0000
8.4916 33.0000 1.0000
8.4968 39.0000 1.0000
8.5020 26.0000 1.0000
8.5072 26.0000 1.0000
8.5124 41.0000 1.0000
8.5176 23.0000 1.0000
8.5228 20.0000 1.0000
8.5280 23.0000 1.0000
8.5332 23.0000 1.0000
8.5384 35.0000 1.0000
8.5436 25.0000 1.0000
8.5488 27.0000 1.0000
8.5540 22.0000 1.0000
8.5592 19.0000 1.0000
8.5644 26.0000 1.0000
8.5696 29.0000 1.0000
8.5748 22.0000 1.0000
8.5800 25.0000 1.0000
8.5852 26.0000 1.0000
8.5904 19.0000 1.0000
8.5956 19.0000 1.0000
8.6008 30.0000 1.0000
8.6060 23.0000 1.0000
8.6112 19.0000 1.0000
8.6164 25.0000 1.0000
8.6216 26.0000 1.0000
8.6268 25.0000 1.0000
8.6320 21.0000 1.0000
8.6372 15.0000 1.0000
8.6424 14.0000 1.0000
8.6476 13.0000 1.0000
8.6528 16.0000 1.0000
8.6580 26.0000 1.0000
8.6632 19.0000 1.0000
8.6684 18.0000 1.0000
8.6736 20.0000 1.0000
8.6788 16.0000 1.0000
8.6840 19.0000 1.0000
8.6892 13.0000 1.0000
8.6944 16.0000 1.0000
8.6996 19.0000 1.0000
8.7048 17.0000 1.0000
8.7100 16.0000 1.0000
8.7152 17.0000 1.0000
8.7204 11.0000 1.0000
8.7256 14.0000 1.0000
8.7308 16.0000 1.0000
8.7360 14.0000 1.0000
8.7412 11.0000 1.0000
8.7464 20.0000 1.0000
8.7516 13.0000 1.0000
8.7568 18.0000 1.0000
8.7620 14.0000 1.0000
8.7672 15.0000 1.0000
8.7724 5.0000 1.0000
8.7776 10.0000 1.0000
8.7828 14.0000 1.0000
8.7880 16.0000 1.0000
8.7932 15.0000 1.0000
8.7984 6.0000 1.0000
8.8036 8.0000 1.0000
8.8088 12.0000 1.0000
8.8140 14.0000 1.0000
8.8192 23.0000 1.0000
8.8244 10.0000 1.0000
8.8296 12.0000 1.0000
8.8348 12.0000 1.0000
8.8400 9.0000 1.0000
8.8452 15.0000 1.0000
8.8504 11.0000 1.0000
8.8556 11.0000 1.0000
8.8608 8.0000 1.0000
8.8660 2.0000 1.0000
8.8712 12.0000 1.0000
8.8764 8.0000 1.0000
8.8816 10.0000 1.0000
8.8868 2.0000 1.0000
8.8920 15.0000 1.0000
8.8972 5.0000 1.0000
8.9024 11.0000 1.0000
8.9076 5.0000 1.0000
8.9128 11.0000 1.0000
8.9180 6.0000 1.0000
8.9232 4.0000 1.0000
8.9284 8.0000 1.0000
8.9336 8.0000 1.0000
8.9388 18.0000 1.0000
8.9440 13.0000 1.0000
8.9492 12.0000 1.0000
8.9544 6.0000 1.0000
8.9596 10.0000 1.0000
8.9648 11.0000 1.0000
8.9700 4.0000 1.0000
8.9752 9.0000 1.0000
8.9804 7.0000 1.0000
8.9856 15.0000 1.0000
8.9908 11.0000 1.0000
8.9960 11.0000 1.0000
9.0012 11.0000 1.0000
9.0064 7.0000 1.0000
9.0116 11.0000 1.0000
9.0168 9.0000 1.0000
9.0220 15.0000 1.0000
9.0272 7.0000 1.0000
9.0324 9.0000 1.0000
9.0376 9.0000 1.0000
9.0428 13.0000 1.0000
9.0480 5.0000 1.0000
9.0532 8.0000 1.0000
9.0584 9.0000 1.0000
9.0636 13.0000 1.0000
9.0688 13.0000 1.0000
9.0740 9.0000 1.0000
9.0792 6.0000 1.0000
9.0844 12.0000 1.0000
9.0896 6.0000 1.0000
9.0948 12.0000 1.0000
9.1000 11.0000 1.0000
9.1052 7.0000 1.0000
9.1104 9.0000 1.0000
9.1156 7.0000 1.0000
9.1208 14.0000 1.0000
9.1260 9.0000 1.0000
9.1312 12.0000 1.0000
9.1364 17.0000 1.0000
9.1416 8.0000 1.0000
9.1468 12.0000 1.0000
9.1520 10.0000 1.0000
9.1572 9.0000 1.0000
9.1624 5.0000 1.0000
9.1676 10.0000 1.0000
9.1728 7.0000 1.0000
9.1780 8.0000 1.0000
9.1832 10.0000 1.0000
9.1884 9.0000 1.0000
9.1936 11.0000 1.0000
9.1988 9.0000 1.0000
9.2040 8.0000 1.0000
9.2092 7.0000 1.0000
9.2144 7.0000 1.0000
9.2196 10.0000 1.0000
9.2248 8.0000 1.0000
9.2300 2.0000 1.0000
9.2352 6.0000 1.0000
9.2404 16.0000 1.0000
9.2456 13.0000 1.0000
9.2508 8.0000 1.0000
9.2560 9.0000 1.0000
9.2612 8.0000 1.0000
9.2664 8.0000 1.0000
9.2716 2.0000 1.0000
9.2768 6.0000 1.0000
9.2820 13.0000 1.0000
9.2872 11.0000 1.0000
9.2924 9.0000 1.0000
9.2976 11.0000 1.0000
9.3028 10.0000 1.0000
9.3080 18.0000 1.0000
9.3132 15.0000 1.0000
9.3184 6.0000 1.0000
9.3236 7.0000 1.0000
9.3288 6.0000 1.0000
9.3340 8.0000 1.0000
9.3392 9.0000 1.0000
9.3444 7.0000 1.0000
9.3496 11.0000 1.0000
9.3548 7.0000 1.0000
9.3600 9.0000 1.0000
9.3652 12.0000 1.0000
9.3704 11.0000 1.0000
9.3756 10.0000 1.0000
9.3808 11.0000 1.0000
9.3860 7.0000 1.0000
9.3912 11.0000 1.0000
9.3964 14.0000 1.0000
9.4016 6.0000 1.0000
9.4068 11.0000 1.0000
9.4120 13.0000 1.0000
9.4172 9.0000 1.0000
9.4224 13.0000 1.0000
9.4276 11.0000 1.0000
9.4328 15.0000 1.0000
9.4380 9.0000 1.0000
9.4432 4.0000 1.0000
9.4484 11.0000 1.0000
9.4536 9.0000 1.0000
9.4588 9.0000 1.0000
9.4640 8.0000 1.0000
9.4692 17.0000 1.0000
9.4744 10.0000 1.0000
9.4796 9.0000 1.0000
9.4848 9.0000 1.0000
9.4900 11.0000 1.0000
9.4952 11.0000 1.0000
9.5004 7.0000 1.0000
9.5056 10.0000 1.0000
9.5108 7.0000 1.0000
9.5160 11.0000 1.0000
9.5212 12.0000 1.0000
9.5264 14.0000 1.0000
9.5316 13.0000 1.0000
9.5368 11.0000 1.0000
9.5420 13.0000 1.0000
9.5472 8.0000 1.0000
9.5524 9.0000 1.0000
9.5576 11.0000 1.0000
9.5628 16.0000 1.0000
9.5680 10.0000 1.0000
9.5732 15.0000 1.0000
9.5784 10.0000 1.0000
9.5836 14.0000 1.0000
9.5888 17.0000 1.0000
9.5940 8.0000 1.0000
9.5992 9.0000 1.0000
9.6044 20.0000 1.0000
9.6096 11.0000 1.0000
9.6148 11.0000 1.0000
9.6200 11.0000 1.0000
9.6252 9.0000 1.0000
9.6304 8.0000 1.0000
9.6356 8.0000 1.0000
9.6408 14.0000 1.0000
9.6460 13.0000 1.0000
9.6512 14.0000 1.0000
9.6564 15.0000 1.0000
9.6616 10.0000 1.0000
9.6668 13.0000 1.0000
9.6720 9.0000 1.0000
9.6772 15.0000 1.0000
9.6824 11.0000 1.0000
9.6876 9.0000 1.0000
9.6928 16.0000 1.0000
9.6980 17.0000 1.0000
9.7032 13.0000 1.0000
9.7084 12.0000 1.0000
9.7136 13.0000 1.0000
9.7188 13.0000 1.0000
9.7240 14.0000 1.0000
9.7292 10.0000 1.0000
9.7344 11.0000 1.0000
9.7396 15.0000 1.0000
9.7448 16.0000 1.0000
9.7500 9.0000 1.0000
9.7552 12.0000 1.0000
9.7604 12.0000 1.0000
9.7656 12.0000 1.0000
9.7708 11.0000 1.0000
9.7760 7.0000 1.0000
9.7812 17.0000 1.0000
9.7864 14.0000 1.0000
9.7916 16.0000 1.0000
9.7968 16.0000 1.0000
9.8020 11.0000 1.0000
9.8072 10.0000 1.0000
9.8124 10.0000 1.0000
9.8176 11.0000 1.0000
9.8228 7.0000 1.0000
9.8280 13.0000 1.0000
9.8332 6.0000 1.0000
9.8384 8.0000 1.0000
9.8436 10.0000 1.0000
9.8488 11.0000 1.0000
9.8540 15.0000 1.0000
9.8592 8.0000 1.0000
9.8644 8.0000 1.0000
9.8696 11.0000 1.0000
9.8748 15.0000 1.0000
9.8800 13.0000 1.0000
9.8852 7.0000 1.0000
9.8904 17.0000 1.0000
9.8956 13.0000 1.0000
9.9008 11.0000 1.0000
9.9060 19.0000 1.0000
9.9112 13.0000 1.0000
9.9164 16.0000 1.0000
9.9216 12.0000 1.0000
9.9268 13.0000 1.0000
9.9320 13.0000 1.0000
9.9372 12.0000 1.0000
9.9424 14.0000 1.0000
9.9476 11.0000 1.0000
9.9528 16.0000 1.0000
9.9580 18.0000 1.0000
9.9632 9.0000 1.0000
9.9684 7.0000 1.0000
9.9736 12.0000 1.0000
9.9788 8.0000 1.0000
9.9840 10.0000 1.0000
9.9892 9.0000 1.0000
9.9944 14.0000 1.0000
9.9996 3.0000 1.0000
10.0048 21.0000 1.0000
10.0100 11.0000 1.0000
10.0152 20.0000 1.0000
10.0204 12.0000 1.0000
10.0256 6.0000 1.0000
10.0308 10.0000 1.0000
10.0360 6.0000 1.0000
10.0412 12.0000 1.0000
10.0464 8.0000 1.0000
10.0516 16.0000 1.0000
10.0568 10.0000 1.0000
10.0620 10.0000 1.0000
10.0672 12.0000 1.0000
10.0724 6.0000 1.0000
10.0776 9.0000 1.0000
10.0828 13.0000 1.0000
10.0880 5.0000 1.0000
10.0932 12.0000 1.0000
10.0984 16.0000 1.0000
10.1036 9.0000 1.0000
10.1088 10.0000 1.0000
10.1140 8.0000 1.0000
10.1192 8.0000 1.0000
10.1244 13.0000 1.0000
10.1296 11.0000 1.0000
10.1348 11.0000 1.0000
10.1400 5.0000 1.0000
10.1452 8.0000 1.0000
10.1504 7.0000 1.0000
10.1556 11.0000 1.0000
10.1608 7.0000 1.0000
10.1660 7.0000 1.0000
10.1712 13.0000 1.0000
10.1764 7.0000 1.0000
10.1816 11.0000 1.0000
10.1868 5.0000 1.0000
10.1920 6.0000 1.0000
10.1972 11.0000 1.0000
10.2024 7.0000 1.0000
10.2076 8.0000 1.0000
10.2128 10.0000 1.0000
10.2180 7.0000 1.0000
10.2232 8.0000 1.0000
10.2284 9.0000 1.0000
10.2336 14.0000 1.0000
10.2388 7.0000 1.0000
10.2440 10.0000 1.0000
10.2492 14.0000 1.0000
10.2544 7.0000 1.0000
10.2596 7.0000 1.0000
10.2648 7.0000 1.0000
10.2700 4.0000 1.0000
10.2752 9.0000 1.0000
10.2804 7.0000 1.0000
10.2856 7.0000 1.0000
10.2908 6.0000 1.0000
10.2960 7.0000 1.0000
10.3012 8.0000 1.0000
10.3064 10.0000 1.0000
10.3116 5.0000 1.0000
10.3168 6.0000 1.0000
10.3220 7.0000 1.0000
10.3272 10.0000 1.0000
10.3324 9.0000 1.0000
10.3376 10.0000 1.0000
10.3428 12.0000 1.0000
10.3480 10.0000 1.0000
10.3532 9.0000 1.0000
10.3584 6.0000 1.0000
10.3636 9.0000 1.0000
10.3688 3.0000 1.0000
10.3740 10.0000 1.0000
10.3792 8.0000 1.0000
10.3844 10.0000 1.0000
10.3896 8.0000 1.0000
10.3948 9.0000 1.0000
10.4000 6.0000 1.0000
10.4052 5.0000 1.0000
10.4104 8.0000 1.0000
10.4156 6.0000 1.0000
10.4208 7.0000 1.0000
10.4260 8.0000 1.0000
10.4312 8.0000 1.0000
10.4364 3.0000 1.0000
10.4416 7.0000 1.0000
10.4468 5.0000 1.0000
10.4520 6.0000 1.0000
10.4572 10.0000 1.0000
10.4624 5.0000 1.0000
10.4676 9.0000 1.0000
10.4728 6.0000 1.0000
10.4780 8.0000 1.0000
10.4832 7.0000 1.0000
10.4884 9.0000 1.0000
10.4936 2.0000 1.0000
10.4988 6.0000 1.0000
10.5040 6.0000 1.0000
10.5092 7.0000 1.0000
10.5144 4.0000 1.0000
10.5196 4.0000 1.0000
10.5248 5.0000 1.0000
10.5300 5.0000 1.0000
10.5352 4.0000 1.0000
10.5404 6.0000 1.0000
10.5456 7.0000 1.0000
10.5508 2.0000 1.0000
10.5560 8.0000 1.0000
10.5612 8.0000 1.0000
10.5664 5.0000 1.0000
10.5716 6.0000 1.0000
10.5768 8.0000 1.0000
10.5820 8.0000 1.0000
10.5872 6.0000 1.0000
10.5924 7.0000 1.0000
10.5976 8.0000 1.0000
10.6028 4.0000 1.0000
10.6080 7.0000 1.0000
10.6132 6.0000 1.0000
10.6184 6.0000 1.0000
10.6236 2.0000 1.0000
10.6288 6.0000 1.0000
10.6340 8.0000 1.0000
10.6392 6.0000 1.0000
10.6444 5.0000 1.0000
10.6496 3.0000 1.0000
10.6548 3.0000 1.0000
10.6600 7.0000 1.0000
10.6652 14.0000 1.0000
10.6704 6.0000 1.0000
10.6756 2.0000 1.0000
10.6808 5.0000 1.0000
10.6860 5.0000 1.0000
10.6912 3.0000 1.0000
10.6964 3.0000 1.0000
10.7016 5.0000 1.0000
10.7068 4.0000 1.0000
10.7120 4.0000 1.0000
10.7172 3.0000 1.0000
10.7224 3.0000 1.0000
10.7276 4.0000 1.0000
10.7328 8.0000 1.0000
10.7380 6.0000 1.0000
10.7432 5.0000 1.0000
10.7484 4.0000 1.0000
10.7536 2.0000 1.0000
10.7588 4.0000 1.0000
10.7640 3.0000 1.0000
10.7692 4.0000 1.0000
10.7744 3.0000 1.0000
10.7796 7.0000 1.0000
10.7848 2.0000 1.0000
10.7900 5.0000 1.0000
10.7952 6.0000 1.0000
10.8004 1.0000 1.0000
10.8056 3.0000 1.0000
10.8108 5.0000 1.0000
10.8160 4.0000 1.0000
10.8212 8.0000 1.0000
10.8264 5.0000 1.0000
10.8316 3.0000 1.0000
10.8368 5.0000 1.0000
10.8420 1.0000 1.0000
10.8472 4.0000 1.0000
10.8524 4.0000 1.0000
10.8576 5.0000 1.0000
10.8628 2.0000 1.0000
10.8680 0.0000 1.0000
10.8732 2.0000 1.0000
10.8784 6.0000 1.0000
10.8836 2.0000 1.0000
10.8888 9.0000 1.0000
10.8940 4.0000 1.0000
10.8992 4.0000 1.0000
10.9044 4.0000 1.0000
10.9096 5.0000 1.0000
10.9148 3.0000 1.0000
10.9200 6.0000 1.0000
10.9252 3.0000 1.0000
10.9304 3.0000 1.0000
10.9356 5.0000 1.0000
10.9408 0.0000 1.0000
10.9460 5.0000 1.0000
10.9512 8.0000 1.0000
10.9564 5.0000 1.0000
10.9616 3.0000 1.0000
10.9668 2.0000 1.0000
10.9720 4.0000 1.0000
10.9772 3.0000 1.0000
10.9824 1.0000 1.0000
10.9876 6.0000 1.0000
10.9928 4.0000 1.0000
10.9980 3.0000 1.0000
11.0032 5.0000 1.0000
11.0084 3.0000 1.0000
11.0136 5.0000 1.0000
11.0188 1.0000 1.0000
11.0240 1.0000 1.0000
11.0292 1.0000 1.0000
11.0344 2.0000 1.0000
11.0396 4.0000 1.0000
11.0448 4.0000 1.0000
11.0500 3.0000 1.0000
11.0552 4.0000 1.0000
11.0604 5.0000 1.0000
11.0656 3.0000 1.0000
11.0708 3.0000 1.0000
11.0760 4.0000 1.0000
11.0812 3.0000 1.0000
11.0864 2.0000 1.0000
11.0916 4.0000 1.0000
11.0968 5.0000 1.0000
11.1020 3.0000 1.0000
11.1072 3.0000 1.0000
11.1124 1.0000 1.0000
11.1176 3.0000 1.0000
11.1228 3.0000 1.0000
11.1280 4.0000 1.0000
11.1332 3.0000 1.0000
11.1384 3.0000 1.0000
11.1436 2.0000 1.0000
11.1488 3.0000 1.0000
11.1540 6.0000 1.0000
11.1592 4.0000 1.0000
11.1644 6.0000 1.0000
11.1696 3.0000 1.0000
11.1748 3.0000 1.0000
11.1800 6.0000 1.0000
11.1852 3.0000 1.0000
11.1904 7.0000 1.0000
11.1956 2.0000 1.0000
11.2008 2.0000 1.0000
11.2060 4.0000 1.0000
11.2112 3.0000 1.0000
11.2164 5.0000 1.0000
11.2216 4.0000 1.0000
11.2268 5.0000 1.0000
11.2320 3.0000 1.0000
11.2372 6.0000 1.0000
11.2424 2.0000 1.0000
11.2476 2.0000 1.0000
11.2528 3.0000 1.0000
11.2580 4.0000 1.0000
11.2632 5.0000 1.0000
11.2684 2.0000 1.0000
11.2736 5.0000 1.0000
11.2788 5.0000 1.0000
11.2840 2.0000 1.0000
11.2892 0.0000 1.0000
11.2944 3.0000 1.0000
11.2996 3.0000 1.0000
11.3048 1.0000 1.0000
11.3100 3.0000 1.0000
11.3152 1.0000 1.0000
11.3204 1.0000 1.0000
11.3256 2.0000 1.0000
11.3308 2.0000 1.0000
11.3360 2.0000 1.0000
11.3412 3.0000 1.0000
11.3464 1.0000 1.0000
11.3516 0.0000 1.0000
11.3568 1.0000 1.0000
11.3620 5.0000 1.0000
11.3672 3.0000 1.0000
11.3724 1.0000 1.0000
11.3776 2.0000 1.0000
11.3828 4.0000 1.0000
11.3880 4.0000 1.0000
11.3932 3.0000 1.0000
11.3984 3.0000 1.0000
11.4036 2.0000 1.0000
11.4088 3.0000 1.0000
11.4140 3.0000 1.0000
11.4192 4.0000 1.0000
11.4244 1.0000 1.0000
11.4296 4.0000 1.0000
11.4348 2.0000 1.0000
11.4400 4.0000 1.0000
11.4452 2.0000 1.0000
11.4504 2.0000 1.0000
11.4556 2.0000 1.0000
11.4608 4.0000 1.0000
11.4660 2.0000 1.0000
11.4712 1.0000 1.0000
11.4764 1.0000 1.0000
11.4816 3.0000 1.0000
11.4868 2.0000 1.0000
11.4920 4.0000 1.0000
11.4972 0.0000 1.0000
11.5024 3.0000 1.0000
11.5076 3.0000 1.0000
11.5128 2.0000 1.0000
11.5180 3.0000 1.0000
11.5232 3.0000 1.0000
11.5284 5.0000 1.0000
11.5336 4.0000 1.0000
11.5388 2.0000 1.0000
11.5440 1.0000 1.0000
11.5492 5.0000 1.0000
11.5544 1.0000 1.0000
11.5596 2.0000 1.0000
11.5648 3.0000 1.0000
11.5700 3.0000 1.0000
11.5752 5.0000 1.0000
11.5804 5.0000 1.0000
11.5856 2.0000 1.0000
11.5908 4.0000 1.0000
11.5960 4.0000 1.0000
11.6012 4.0000 1.0000
11.6064 3.0000 1.0000
11.6116 6.0000 1.0000
11.6168 3.0000 1.0000
11.6220 3.0000 1.0000
11.6272 1.0000 1.0000
11.6324 1.0000 1.0000
11.6376 3.0000 1.0000
11.6428 7.0000 1.0000
11.6480 3.0000 1.0000
11.6532 1.0000 1.0000
11.6584 2.0000 1.0000
11.6636 4.0000 1.0000
11.6688 4.0000 1.0000
11.6740 6.0000 1.0000
11.6792 6.0000 1.0000
11.6844 0.0000 1.0000
11.6896 6.0000 1.0000
11.6948 0.0000 1.0000
11.7000 7.0000 1.0000
11.7052 2.0000 1.0000
11.7104 1.0000 1.0000
11.7156 2.0000 1.0000
11.7208 4.0000 1.0000
11.7260 5.0000 1.0000
11.7312 2.0000 1.0000
11.7364 2.0000 1.0000
11.7416 2.0000 1.0000
11.7468 3.0000 1.0000
11.7520 2.0000 1.0000
11.7572 1.0000 1.0000
11.7624 4.0000 1.0000
11.7676 0.0000 1.0000
11.7728 1.0000 1.0000
11.7780 4.0000 1.0000
11.7832 4.0000 1.0000
11.7884 7.0000 1.0000
11.7936 0.0000 1.0000
11.7988 4.0000 1.0000
11.8040 2.0000 1.0000
11.8092 2.0000 1.0000
11.8144 2.0000 1.0000
11.8196 2.0000 1.0000
11.8248 4.0000 1.0000
11.8300 3.0000 1.0000
11.8352 4.0000 1.0000
11.8404 0.0000 1.0000
11.8456 2.0000 1.0000
11.8508 6.0000 1.0000
11.8560 4.0000 1.0000
11.8612 0.0000 1.0000
11.8664 1.0000 1.0000
11.8716 1.0000 1.0000
11.8768 1.0000 1.0000
11.8820 0.0000 1.0000
11.8872 4.0000 1.0000
11.8924 4.0000 1.0000
11.8976 2.0000 1.0000
11.9028 3.0000 1.0000
11.9080 2.0000 1.0000
11.9132 2.0000 1.0000
11.9184 4.0000 1.0000
11.9236 2.0000 1.0000
11.9288 5.0000 1.0000
11.9340 4.0000 1.0000
11.9392 2.0000 1.0000
11.9444 5.0000 1.0000
11.9496 7.0000 1.0000
11.9548 5.0000 1.0000
11.9600 2.0000 1.0000
11.9652 2.0000 1.0000
11.9704 6.0000 1.0000
11.9756 3.0000 1.0000
11.9808 3.0000 1.0000
11.9860 3.0000 1.0000
11.9912 2.0000 1.0000
11.9964 3.0000 1.0000
12.0016 2.0000 1.0000
12.0068 6.0000 1.0000
12.0120 1.0000 1.0000
12.0172 5.0000 1.0000
12.0224 4.0000 1.0000
12.0276 2.0000 1.0000
12.0328 5.0000 1.0000
12.0380 3.0000 1.0000
12.0432 2.0000 1.0000
12.0484 3.0000 1.0000
12.0536 4.0000 1.0000
12.0588 4.0000 1.0000
12.0640 3.0000 1.0000
12.0692 3.0000 1.0000
12.0744 6.0000 1.0000
12.0796 3.0000 1.0000
12.0848 5.0000 1.0000
12.0900 7.0000 1.0000
12.0952 5.0000 1.0000
12.1004 7.0000 1.0000
12.1056 2.0000 1.0000
12.1108 3.0000 1.0000
12.1160 1.0000 1.0000
12.1212 5.0000 1.0000
12.1264 4.0000 1.0000
12.1316 5.0000 1.0000
12.1368 3.0000 1.0000
12.1420 4.0000 1.0000
12.1472 3.0000 1.0000
12.1524 5.0000 1.0000
12.1576 3.0000 1.0000
12.1628 4.0000 1.0000
12.1680 0.0000 1.0000
12.1732 5.0000 1.0000
12.1784 5.0000 1.0000
12.1836 7.0000 1.0000
12.1888 0.0000 1.0000
12.1940 5.0000 1.0000
12.1992 2.0000 1.0000
12.2044 2.0000 1.0000
12.2096 5.0000 1.0000
12.2148 1.0000 1.0000
12.2200 4.0000 1.0000
12.2252 4.0000 1.0000
12.2304 4.0000 1.0000
12.2356 2.0000 1.0000
12.2408 1.0000 1.0000
12.2460 4.0000 1.0000
12.2512 6.0000 1.0000
12.2564 1.0000 1.0000
12.2616 1.0000 1.0000
12.2668 4.0000 1.0000
12.2720 3.0000 1.0000
12.2772 3.0000 1.0000
12.2824 5.0000 1.0000
12.2876 3.0000 1.0000
12.2928 5.0000 1.0000
12.2980 3.0000 1.0000
12.3032 1.0000 1.0000
12.3084 3.0000 1.0000
12.3136 3.0000 1.0000
12.3188 2.0000 1.0000
12.3240 5.0000 1.0000
12.3292 2.0000 1.0000
12.3344 0.0000 1.0000
12.3396 5.0000 1.0000
12.3448 2.0000 1.0000
12.3500 6.0000 1.0000
12.3552 5.0000 1.0000
12.3604 5.0000 1.0000
12.3656 1.0000 1.0000
12.3708 1.0000 1.0000
12.3760 4.0000 1.0000
12.3812 1.0000 1.0000
12.3864 5.0000 1.0000
12.3916 3.0000 1.0000
12.3968 3.0000 1.0000
12.4020 6.0000 1.0000
12.4072 4.0000 1.0000
12.4124 2.0000 1.0000
12.4176 3.0000 1.0000
12.4228 4.0000 1.0000
12.4280 5.0000 1.0000
12.4332 4.0000 1.0000
12.4384 5.0000 1.0000
12.4436 6.0000 1.0000
12.4488 4.0000 1.0000
12.4540 8.0000 1.0000
12.4592 3.0000 1.0000
12.4644 2.0000 1.0000
12.4696 1.0000 1.0000
12.4748 3.0000 1.0000
12.4800 5.0000 1.0000
12.4852 4.0000 1.0000
12.4904 2.0000 1.0000
12.4956 3.0000 1.0000
12.5008 3.0000 1.0000
12.5060 2.0000 1.0000
12.5112 4.0000 1.0000
12.5164 3.0000 1.0000
12.5216 1.0000 1.0000
12.5268 2.0000 1.0000
12.5320 2.0000 1.0000
12.5372 4.0000 1.0000
12.5424 1.0000 1.0000
12.5476 5.0000 1.0000
12.5528 0.0000 1.0000
12.5580 3.0000 1.0000
12.5632 5.0000 1.0000
12.5684 6.0000 1.0000
12.5736 3.0000 1.0000
12.5788 3.0000 1.0000
12.5840 4.0000 1.0000
12.5892 1.0000 1.0000
12.5944 3.0000 1.0000
12.5996 3.0000 1.0000
12.6048 0.0000 1.0000
12.6100 0.0000 1.0000
12.6152 1.0000 1.0000
12.6204 3.0000 1.0000
12.6256 1.0000 1.0000
12.6308 3.0000 1.0000
12.6360 4.0000 1.0000
12.6412 2.0000 1.0000
12.6464 5.0000 1.0000
12.6516 1.0000 1.0000
12.6568 2.0000 1.0000
12.6620 3.0000 1.0000
12.6672 1.0000 1.0000
12.6724 2.0000 1.0000
12.6776 4.0000 1.0000
12.6828 5.0000 1.0000
12.6880 5.0000 1.0000
12.6932 2.0000 1.0000
12.6984 5.0000 1.0000
12.7036 5.0000 1.0000
12.7088 2.0000 1.0000
12.7140 2.0000 1.0000
12.7192 4.0000 1.0000
12.7244 3.0000 1.0000
12.7296 4.0000 1.0000
12.7348 0.0000 1.0000
12.7400 1.0000 1.0000
12.7452 2.0000 1.0000
12.7504 4.0000 1.0000
12.7556 1.0000 1.0000
12.7608 3.0000 1.0000
12.7660 2.0000 1.0000
12.7712 5.0000 1.0000
12.7764 1.0000 1.0000
12.7816 2.0000 1.0000
12.7868 1.0000 1.0000
12.7920 2.0000 1.0000
12.7972 4.0000 1.0000
12.8024 0.0000 1.0000
12.8076 4.0000 1.0000
12.8128 5.0000 1.0000
12.8180 1.0000 1.0000
12.8232 3.0000 1.0000
12.8284 3.0000 1.0000
12.8336 3.0000 1.0000
12.8388 1.0000 1.0000
12.8440 2.0000 1.0000
12.8492 1.0000 1.0000
12.8544 3.0000 1.0000
12.8596 3.0000 1.0000
12.8648 3.0000 1.0000
12.8700 4.0000 1.0000
12.8752 0.0000 1.0000
12.8804 1.0000 1.0000
12.8856 4.0000 1.0000
12.8908 5.0000 1.0000
12.8960 2.0000 1.0000
12.9012 6.0000 1.0000
12.9064 1.0000 1.0000
12.9116 3.0000 1.0000
12.9168 2.0000 1.0000
12.9220 4.0000 1.0000
12.9272 4.0000 1.0000
12.9324 5.0000 1.0000
12.9376 1.0000 1.0000
12.9428 3.0000 1.0000
12.9480 3.0000 1.0000
12.9532 3.0000 1.0000
12.9584 2.0000 1.0000
12.9636 2.0000 1.0000
12.9688 3.0000 1.0000
12.9740 3.0000 1.0000
12.9792 3.0000 1.0000
12.9844 2.0000 1.0000
12.9896 3.0000 1.0000
12.9948 5.0000 1.0000
13.0000 2.0000 1.0000
13.0052 2.0000 1.0000
13.0104 1.0000 1.0000
13.0156 0.0000 1.0000
13.0208 5.0000 1.0000
13.0260 3.0000 1.0000
13.0312 2.0000 1.0000
13.0364 4.0000 1.0000
13.0416 0.0000 1.0000
13.0468 3.0000 1.0000
13.0520 4.0000 1.0000
13.0572 3.0000 1.0000
13.0624 4.0000 1.0000
13.0676 1.0000 1.0000
13.0728 3.0000 1.0000
13.0780 3.0000 1.0000
13.0832 1.0000 1.0000
13.0884 5.0000 1.0000
13.0936 3.0000 1.0000
13.0988 3.0000 1.0000
13.1040 2.0000 1.0000
13.1092 2.0000 1.0000
13.1144 4.0000 1.0000
13.1196 1.0000 1.0000
13.1248 4.0000 1.0000
13.1300 1.0000 1.0000
13.1352 2.0000 1.0000
13.1404 5.0000 1.0000
13.1456 2.0000 1.0000
13.1508 7.0000 1.0000
13.1560 1.0000 1.0000
13.1612 3.0000 1.0000
13.1664 3.0000 1.0000
13.1716 1.0000 1.0000
13.1768 2.0000 1.0000
13.1820 3.0000 1.0000
13.1872 0.0000 1.0000
13.1924 3.0000 1.0000
13.1976 5.0000 1.0000
13.2028 7.0000 1.0000
13.2080 7.0000 1.0000
13.2132 3.0000 1.0000
13.2184 1.0000 1.0000
13.2236 3.0000 1.0000
13.2288 2.0000 1.0000
13.2340 1.0000 1.0000
13.2392 1.0000 1.0000
13.2444 3.0000 1.0000
13.2496 3.0000 1.0000
13.2548 3.0000 1.0000
13.2600 1.0000 1.0000
13.2652 0.0000 1.0000
13.2704 2.0000 1.0000
13.2756 4.0000 1.0000
13.2808 4.0000 1.0000
13.2860 2.0000 1.0000
13.2912 3.0000 1.0000
13.2964 1.0000 1.0000
13.3016 4.0000 1.0000
13.3068 0.0000 1.0000
13.3120 4.0000 1.0000
13.3172 0.0000 1.0000
13.3224 2.0000 1.0000
13.3276 0.0000 1.0000
13.3328 1.0000 1.0000
13.3380 3.0000 1.0000
13.3432 1.0000 1.0000
13.3484 1.0000 1.0000
13.3536 3.0000 1.0000
13.3588 4.0000 1.0000
13.3640 3.0000 1.0000
13.3692 4.0000 1.0000
13.3744 3.0000 1.0000
13.3796 3.0000 1.0000
13.3848 0.0000 1.0000
13.3900 3.0000 1.0000
13.3952 2.0000 1.0000
13.4004 4.0000 1.0000
13.4056 1.0000 1.0000
13.4108 5.0000 1.0000
13.4160 2.0000 1.0000
13.4212 5.0000 1.0000
13.4264 0.0000 1.0000
13.4316 2.0000 1.0000
13.4368 2.0000 1.0000
13.4420 2.0000 1.0000
13.4472 2.0000 1.0000
13.4524 1.0000 1.0000
13.4576 7.0000 1.0000
13.4628 1.0000 1.0000
13.4680 4.0000 1.0000
13.4732 2.0000 1.0000
13.4784 7.0000 1.0000
13.4836 1.0000 1.0000
13.4888 2.0000 1.0000
13.4940 2.0000 1.0000
13.4992 5.0000 1.0000
13.5044 2.0000 1.0000
13.5096 3.0000 1.0000
13.5148 2.0000 1.0000
13.5200 5.0000 1.0000
13.5252 4.0000 1.0000
13.5304 2.0000 1.0000
13.5356 0.0000 1.0000
13.5408 4.0000 1.0000
13.5460 4.0000 1.0000
13.5512 1.0000 1.0000
13.5564 3.0000 1.0000
13.5616 3.0000 1.0000
13.5668 0.0000 1.0000
13.5720 3.0000 1.0000
13.5772 7.0000 1.0000
13.5824 2.0000 1.0000
13.5876 4.0000 1.0000
13.5928 1.0000 1.0000
13.5980 3.0000 1.0000
13.6032 5.0000 1.0000
13.6084 2.0000 1.0000
13.6136 2.0000 1.0000
13.6188 3.0000 1.0000
13.6240 0.0000 1.0000
13.6292 1.0000 1.0000
13.6344 5.0000 1.0000
13.6396 3.0000 1.0000
13.6448 3.0000 1.0000
13.6500 1.0000 1.0000
13.6552 3.0000 1.0000
13.6604 0.0000 1.0000
13.6656 3.0000 1.0000
13.6708 4.0000 1.0000
13.6760 3.0000 1.0000
13.6812 5.0000 1.0000
13.6864 1.0000 1.0000
13.6916 1.0000 1.0000
13.6968 0.0000 1.0000
13.7020 1.0000 1.0000
13.7072 1.0000 1.0000
13.7124 3.0000 1.0000
13.7176 1.0000 1.0000
13.7228 0.0000 1.0000
13.7280 4.0000 1.0000
13.7332 3.0000 1.0000
13.7384 3.0000 1.0000
13.7436 7.0000 1.0000
13.7488 6.0000 1.0000
13.7540 4.0000 1.0000
13.7592 4.0000 1.0000
13.7644 3.0000 1.0000
13.7696 5.0000 1.0000
13.7748 5.0000 1.0000
13.7800 1.0000 1.0000
13.7852 2.0000 1.0000
13.7904 2.0000 1.0000
13.7956 3.0000 1.0000
13.8008 1.0000 1.0000
13.8060 1.0000 1.0000
13.8112 5.0000 1.0000
13.8164 4.0000 1.0000
13.8216 3.0000 1.0000
13.8268 5.0000 1.0000
13.8320 2.0000 1.0000
13.8372 3.0000 1.0000
13.8424 4.0000 1.0000
13.8476 3.0000 1.0000
13.8528 2.0000 1.0000
13.8580 2.0000 1.0000
13.8632 6.0000 1.0000
13.8684 5.0000 1.0000
13.8736 4.0000 1.0000
13.8788 7.0000 1.0000
13.8840 1.0000 1.0000
13.8892 3.0000 1.0000
13.8944 1.0000 1.0000
13.8996 3.0000 1.0000
13.9048 4.0000 1.0000
13.9100 7.0000 1.0000
13.9152 3.0000 1.0000
13.9204 3.0000 1.0000
13.9256 2.0000 1.0000
13.9308 0.0000 1.0000
13.9360 5.0000 1.0000
13.9412 2.0000 1.0000
13.9464 5.0000 1.0000
13.9516 3.0000 1.0000
13.9568 1.0000 1.0000
13.9620 3.0000 1.0000
13.9672 4.0000 1.0000
13.9724 2.0000 1.0000
13.9776 1.0000 1.0000
13.9828 6.0000 1.0000
13.9880 4.0000 1.0000
13.9932 1.0000 1.0000
13.9984 2.0000 1.0000
14.0036 2.0000 1.0000
14.0088 2.0000 1.0000
14.0140 0.0000 1.0000
14.0192 3.0000 1.0000
14.0244 2.0000 1.0000
14.0296 2.0000 1.0000
14.0348 5.0000 1.0000
14.0400 1.0000 1.0000
14.0452 1.0000 1.0000
14.0504 0.0000 1.0000
14.0556 3.0000 1.0000
14.0608 2.0000 1.0000
14.0660 1.0000 1.0000
14.0712 4.0000 1.0000
14.0764 1.0000 1.0000
14.0816 2.0000 1.0000
14.0868 6.0000 1.0000
14.0920 4.0000 1.0000
14.0972 4.0000 1.0000
14.1024 4.0000 1.0000
14.1076 3.0000 1.0000
14.1128 4.0000 1.0000
14.1180 3.0000 1.0000
14.1232 2.0000 1.0000
14.1284 3.0000 1.0000
14.1336 3.0000 1.0000
14.1388 2.0000 1.0000
14.1440 4.0000 1.0000
14.1492 1.0000 1.0000
14.1544 0.0000 1.0000
14.1596 5.0000 1.0000
14.1648 2.0000 1.0000
14.1700 2.0000 1.0000
14.1752 1.0000 1.0000
14.1804 2.0000 1.0000
14.1856 2.0000 1.0000
14.1908 6.0000 1.0000
14.1960 4.0000 1.0000
14.2012 3.0000 1.0000
14.2064 2.0000 1.0000
14.2116 1.0000 1.0000
14.2168 0.0000 1.0000
14.2220 1.0000 1.0000
14.2272 4.0000 1.0000
14.2324 7.0000 1.0000
14.2376 3.0000 1.0000
14.2428 2.0000 1.0000
14.2480 1.0000 1.0000
14.2532 2.0000 1.0000
14.2584 1.0000 1.0000
14.2636 2.0000 1.0000
14.2688 1.0000 1.0000
14.2740 1.0000 1.0000
14.2792 3.0000 1.0000
14.2844 3.0000 1.0000
14.2896 2.0000 1.0000
14.2948 4.0000 1.0000
14.3000 3.0000 1.0000
14.3052 1.0000 1.0000
14.3104 2.0000 1.0000
14.3156 2.0000 1.0000
14.3208 2.0000 1.0000
14.3260 1.0000 1.0000
14.3312 3.0000 1.0000
14.3364 1.0000 1.0000
14.3416 2.0000 1.0000
14.3468 0.0000 1.0000
14.3520 4.0000 1.0000
14.3572 1.0000 1.0000
14.3624 3.0000 1.0000
14.3676 3.0000 1.0000
14.3728 3.0000 1.0000
14.3780 5.0000 1.0000
14.3832 5.0000 1.0000
14.3884 3.0000 1.0000
14.3936 3.0000 1.0000
14.3988 2.0000 1.0000
14.4040 1.0000 1.0000
14.4092 0.0000 1.0000
14.4144 3.0000 1.0000
14.4196 5.0000 1.0000
14.4248 1.0000 1.0000
14.4300 3.0000 1.0000
14.4352 1.0000 1.0000
14.4404 2.0000 1.0000
14.4456 5.0000 1.0000
14.4508 4.0000 1.0000
14.4560 4.0000 1.0000
14.4612 0.0000 1.0000
14.4664 2.0000 1.0000
14.4716 5.0000 1.0000
14.4768 0.0000 1.0000
14.4820 5.0000 1.0000
14.4872 2.0000 1.0000
14.4924 1.0000 1.0000
14.4976 4.0000 1.0000
14.5028 1.0000 1.0000
14.5080 3.0000 1.0000
14.5132 5.0000 1.0000
14.5184 2.0000 1.0000
14.5236 1.0000 1.0000
14.5288 4.0000 1.0000
14.5340 5.0000 1.0000
14.5392 3.0000 1.0000
14.5444 3.0000 1.0000
14.5496 4.0000 1.0000
14.5548 2.0000 1.0000
14.5600 1.0000 1.0000
14.5652 4.0000 1.0000
14.5704 1.0000 1.0000
14.5756 4.0000 1.0000
14.5808 2.0000 1.0000
14.5860 3.0000 1.0000
14.5912 4.0000 1.0000
14.5964 2.0000 1.0000
14.6016 1.0000 1.0000
14.6068 4.0000 1.0000
14.6120 1.0000 1.0000
14.6172 4.0000 1.0000
14.6224 1.0000 1.0000
14.6276 2.0000 1.0000
14.6328 1.0000 1.0000
14.6380 0.0000 1.0000
14.6432 2.0000 1.0000
14.6484 1.0000 1.0000
14.6536 2.0000 1.0000
14.6588 4.0000 1.0000
14.6640 1.0000 1.0000
14.6692 3.0000 1.0000
14.6744 5.0000 1.0000
14.6796 2.0000 1.0000
14.6848 2.0000 1.0000
14.6900 6.0000 1.0000
14.6952 6.0000 1.0000
14.7004 1.0000 1.0000
14.7056 3.0000 1.0000
14.7108 1.0000 1.0000
14.7160 4.0000 1.0000
14.7212 5.0000 1.0000
14.7264 2.0000 1.0000
14.7316 4.0000 1.0000
14.7368 4.0000 1.0000
14.7420 1.0000 1.0000
14.7472 3.0000 1.0000
14.7524 2.0000 1.0000
14.7576 2.0000 1.0000
14.7628 3.0000 1.0000
14.7680 1.0000 1.0000
14.7732 4.0000 1.0000
14.7784 3.0000 1.0000
14.7836 4.0000 1.0000
14.7888 3.0000 1.0000
14.7940 2.0000 1.0000
14.7992 6.0000 1.0000
14.8044 5.0000 1.0000
14.8096 0.0000 1.0000
14.8148 0.0000 1.0000
14.8200 1.0000 1.0000
14.8252 2.0000 1.0000
14.8304 2.0000 1.0000
14.8356 1.0000 1.0000
14.8408 4.0000 1.0000
14.8460 5.0000 1.0000
14.8512 4.0000 1.0000
14.8564 0.0000 1.0000
14.8616 2.0000 1.0000
14.8668 2.0000 1.0000
14.8720 3.0000 1.0000
14.8772 4.0000 1.0000
14.8824 2.0000 1.0000
14.8876 2.0000 1.0000
14.8928 1.0000 1.0000
14.8980 2.0000 1.0000
14.9032 2.0000 1.0000
14.9084 1.0000 1.0000
14.9136 2.0000 1.0000
14.9188 4.0000 1.0000
14.9240 1.0000 1.0000
14.9292 3.0000 1.0000
14.9344 8.0000 1.0000
14.9396 3.0000 1.0000
14.9448 5.0000 1.0000
14.9500 2.0000 1.0000
14.9552 2.0000 1.0000
14.9604 2.0000 1.0000
14.9656 3.0000 1.0000
14.9708 6.0000 1.0000
14.9760 3.0000 1.0000
14.9812 5.0000 1.0000
14.9864 2.0000 1.0000
14.9916 2.0000 1.0000
14.9968 0.0000 1.0000
15.0020 7.0000 1.0000
15.0072 3.0000 1.0000
15.0124 3.0000 1.0000
15.0176 5.0000 1.0000
15.0228 2.0000 1.0000
15.0280 4.0000 1.0000
15.0332 1.0000 1.0000
15.0384 1.0000 1.0000
15.0436 3.0000 1.0000
15.0488 3.0000 1.0000
15.0540 1.0000 1.0000
15.0592 1.0000 1.0000
15.0644 3.0000 1.0000
15.0696 2.0000 1.0000
15.0748 2.0000 1.0000
15.0800 3.0000 1.0000
15.0852 4.0000 1.0000
15.0904 2.0000 1.0000
15.0956 3.0000 1.0000
15.1008 5.0000 1.0000
15.1060 3.0000 1.0000
15.1112 0.0000 1.0000
15.1164 3.0000 1.0000
15.1216 2.0000 1.0000
15.1268 1.0000 1.0000
15.1320 1.0000 1.0000
15.1372 4.0000 1.0000
15.1424 4.0000 1.0000
15.1476 0.0000 1.0000
15.1528 1.0000 1.0000
15.1580 2.0000 1.0000
15.1632 1.0000 1.0000
15.1684 1.0000 1.0000
15.1736 0.0000 1.0000
15.1788 5.0000 1.0000
15.1840 3.0000 1.0000
15.1892 1.0000 1.0000
15.1944 4.0000 1.0000
15.1996 1.0000 1.0000
15.2048 1.0000 1.0000
15.2100 0.0000 1.0000
15.2152 2.0000 1.0000
15.2204 4.0000 1.0000
15.2256 2.0000 1.0000
15.2308 2.0000 1.0000
15.2360 4.0000 1.0000
15.2412 2.0000 1.0000
15.2464 1.0000 1.0000
15.2516 2.0000 1.0000
15.2568 4.0000 1.0000
15.2620 1.0000 1.0000
15.2672 3.0000 1.0000
15.2724 2.0000 1.0000
15.2776 0.0000 1.0000
15.2828 1.0000 1.0000
15.2880 2.0000 1.0000
15.2932 2.0000 1.0000
15.2984 3.0000 1.0000
15.3036 2.0000 1.0000
15.3088 2.0000 1.0000
15.3140 3.0000 1.0000
15.3192 3.0000 1.0000
15.3244 4.0000 1.0000
15.3296 5.0000 1.0000
15.3348 5.0000 1.0000
15.3400 2.0000 1.0000
15.3452 5.0000 1.0000
15.3504 2.0000 1.0000
15.3556 2.0000 1.0000
15.3608 2.0000 1.0000
15.3660 4.0000 1.0000
15.3712 5.0000 1.0000
15.3764 1.0000 1.0000
15.3816 1.0000 1.0000
15.3868 0.0000 1.0000
15.3920 7.0000 1.0000
15.3972 4.0000 1.0000
15.4024 3.0000 1.0000
15.4076 2.0000 1.0000
15.4128 1.0000 1.0000
15.4180 1.0000 1.0000
15.4232 2.0000 1.0000
15.4284 3.0000 1.0000
15.4336 1.0000 1.0000
15.4388 1.0000 1.0000
15.4440 5.0000 1.0000
15.4492 1.0000 1.0000
15.4544 5.0000 1.0000
15.4596 4.0000 1.0000
15.4648 2.0000 1.0000
15.4700 3.0000 1.0000
15.4752 1.0000 1.0000
15.4804 2.0000 1.0000
15.4856 1.0000 1.0000
15.4908 4.0000 1.0000
15.4960 1.0000 1.0000
15.5012 2.0000 1.0000
15.5064 3.0000 1.0000
15.5116 3.0000 1.0000
15.5168 3.0000 1.0000
15.5220 5.0000 1.0000
15.5272 2.0000 1.0000
15.5324 3.0000 1.0000
15.5376 3.0000 1.0000
15.5428 1.0000 1.0000
15.5480 4.0000 1.0000
15.5532 0.0000 1.0000
15.5584 3.0000 1.0000
15.5636 1.0000 1.0000
15.5688 2.0000 1.0000
15.5740 1.0000 1.0000
15.5792 5.0000 1.0000
15.5844 1.0000 1.0000
15.5896 8.0000 1.0000
15.5948 9.0000 1.0000
15.6000 3.0000 1.0000
15.6052 3.0000 1.0000
15.6104 2.0000 1.0000
15.6156 3.0000 1.0000
15.6208 5.0000 1.0000
15.6260 2.0000 1.0000
15.6312 1.0000 1.0000
15.6364 3.0000 1.0000
15.6416 2.0000 1.0000
15.6468 1.0000 1.0000
15.6520 3.0000 1.0000
15.6572 2.0000 1.0000
15.6624 0.0000 1.0000
15.6676 3.0000 1.0000
15.6728 5.0000 1.0000
15.6780 4.0000 1.0000
15.6832 1.0000 1.0000
15.6884 0.0000 1.0000
15.6936 4.0000 1.0000
15.6988 1.0000 1.0000
15.7040 1.0000 1.0000
15.7092 3.0000 1.0000
15.7144 1.0000 1.0000
15.7196 3.0000 1.0000
15.7248 2.0000 1.0000
15.7300 2.0000 1.0000
15.7352 3.0000 1.0000
15.7404 2.0000 1.0000
15.7456 0.0000 1.0000
15.7508 3.0000 1.0000
15.7560 2.0000 1.0000
15.7612 5.0000 1.0000
15.7664 2.0000 1.0000
15.7716 2.0000 1.0000
15.7768 3.0000 1.0000
15.7820 2.0000 1.0000
15.7872 3.0000 1.0000
15.7924 1.0000 1.0000
15.7976 2.0000 1.0000
15.8028 4.0000 1.0000
15.8080 6.0000 1.0000
15.8132 1.0000 1.0000
15.8184 1.0000 1.0000
15.8236 1.0000 1.0000
15.8288 4.0000 1.0000
15.8340 3.0000 1.0000
15.8392 3.0000 1.0000
15.8444 3.0000 1.0000
15.8496 0.0000 1.0000
15.8548 0.0000 1.0000
15.8600 2.0000 1.0000
15.8652 6.0000 1.0000
15.8704 4.0000 1.0000
15.8756 1.0000 1.0000
15.8808 4.0000 1.0000
15.8860 3.0000 1.0000
15.8912 0.0000 1.0000
15.8964 3.0000 1.0000
15.9016 1.0000 1.0000
15.9068 7.0000 1.0000
15.9120 4.0000 1.0000
15.9172 3.0000 1.0000
15.9224 1.0000 1.0000
15.9276 1.0000 1.0000
15.9328 3.0000 1.0000
15.9380 1.0000 1.0000
15.9432 2.0000 1.0000
15.9484 2.0000 1.0000
15.9536 2.0000 1.0000
15.9588 3.0000 1.0000
15.9640 4.0000 1.0000
15.9692 3.0000 1.0000
15.9744 2.0000 1.0000
15.9796 5.0000 1.0000
15.9848 2.0000 1.0000
15.9900 2.0000 1.0000
15.9952 1.0000 1.0000
16.0004 0.0000 1.0000
16.0056 3.0000 1.0000
16.0108 3.0000 1.0000
16.0160 4.0000 1.0000
16.0212 2.0000 1.0000
16.0264 2.0000 1.0000
16.0316 2.0000 1.0000
16.0368 1.0000 1.0000
16.0420 2.0000 1.0000
16.0472 4.0000 1.0000
16.0524 6.0000 1.0000
16.0576 3.0000 1.0000
16.0628 3.0000 1.0000
16.0680 0.0000 1.0000
16.0732 3.0000 1.0000
16.0784 2.0000 1.0000
16.0836 3.0000 1.0000
16.0888 1.0000 1.0000
16.0940 1.0000 1.0000
16.0992 0.0000 1.0000
16.1044 1.0000 1.0000
16.1096 2.0000 1.0000
16.1148 0.0000 1.0000
16.1200 5.0000 1.0000
16.1252 1.0000 1.0000
16.1304 4.0000 1.0000
16.1356 1.0000 1.0000
16.1408 4.0000 1.0000
16.1460 2.0000 1.0000
16.1512 2.0000 1.0000
16.1564 1.0000 1.0000
16.1616 1.0000 1.0000
16.1668 4.0000 1.0000
16.1720 3.0000 1.0000
16.1772 1.0000 1.0000
16.1824 6.0000 1.0000
16.1876 3.0000 1.0000
16.1928 5.0000 1.0000
16.1980 0.0000 1.0000
16.2032 3.0000 1.0000
16.2084 0.0000 1.0000
16.2136 1.0000 1.0000
16.2188 1.0000 1.0000
16.2240 5.0000 1.0000
16.2292 3.0000 1.0000
16.2344 1.0000 1.0000
16.2396 2.0000 1.0000
16.2448 1.0000 1.0000
16.2500 5.0000 1.0000
16.2552 1.0000 1.0000
16.2604 3.0000 1.0000
16.2656 4.0000 1.0000
16.2708 0.0000 1.0000
16.2760 4.0000 1.0000
16.2812 3.0000 1.0000
16.2864 4.0000 1.0000
16.2916 5.0000 1.0000
16.2968 3.0000 1.0000
16.3020 3.0000 1.0000
16.3072 1.0000 1.0000
16.3124 1.0000 1.0000
16.3176 3.0000 1.0000
16.3228 0.0000 1.0000
16.3280 5.0000 1.0000
16.3332 4.0000 1.0000
16.3384 1.0000 1.0000
16.3436 3.0000 1.0000
16.3488 3.0000 1.0000
16.3540 1.0000 1.0000
16.3592 1.0000 1.0000
16.3644 3.0000 1.0000
16.3696 2.0000 1.0000
16.3748 2.0000 1.0000
16.3800 2.0000 1.0000
16.3852 3.0000 1.0000
16.3904 1.0000 1.0000
16.3956 2.0000 1.0000
16.4008 2.0000 1.0000
16.4060 1.0000 1.0000
16.4112 3.0000 1.0000
16.4164 1.0000 1.0000
16.4216 2.0000 1.0000
16.4268 0.0000 1.0000
16.4320 4.0000 1.0000
16.4372 2.0000 1.0000
16.4424 2.0000 1.0000
16.4476 3.0000 1.0000
16.4528 0.0000 1.0000
16.4580 0.0000 1.0000
16.4632 1.0000 1.0000
16.4684 2.0000 1.0000
16.4736 1.0000 1.0000
16.4788 0.0000 1.0000
16.4840 3.0000 1.0000
16.4892 4.0000 1.0000
16.4944 1.0000 1.0000
16.4996 1.0000 1.0000
16.5048 6.0000 1.0000
16.5100 4.0000 1.0000
16.5152 1.0000 1.0000
16.5204 3.0000 1.0000
16.5256 1.0000 1.0000
16.5308 1.0000 1.0000
16.5360 3.0000 1.0000
16.5412 4.0000 1.0000
16.5464 5.0000 1.0000
16.5516 2.0000 1.0000
16.5568 2.0000 1.0000
16.5620 2.0000 1.0000
16.5672 1.0000 1.0000
16.5724 4.0000 1.0000
16.5776 3.0000 1.0000
16.5828 2.0000 1.0000
16.5880 2.0000 1.0000
16.5932 2.0000 1.0000
16.5984 3.0000 1.0000
16.6036 1.0000 1.0000
16.6088 3.0000 1.0000
16.6140 0.0000 1.0000
16.6192 1.0000 1.0000
16.6244 5.0000 1.0000
16.6296 3.0000 1.0000
16.6348 4.0000 1.0000
16.6400 2.0000 1.0000
16.6452 6.0000 1.0000
16.6504 3.0000 1.0000
16.6556 1.0000 1.0000
16.6608 2.0000 1.0000
16.6660 3.0000 1.0000
16.6712 2.0000 1.0000
16.6764 1.0000 1.0000
16.6816 2.0000 1.0000
16.6868 4.0000 1.0000
16.6920 1.0000 1.0000
16.6972 2.0000 1.0000
16.7024 3.0000 1.0000
16.7076 4.0000 1.0000
16.7128 0.0000 1.0000
16.7180 2.0000 1.0000
16.7232 3.0000 1.0000
16.7284 2.0000 1.0000
16.7336 1.0000 1.0000
16.7388 1.0000 1.0000
16.7440 3.0000 1.0000
16.7492 4.0000 1.0000
16.7544 4.0000 1.0000
16.7596 3.0000 1.0000
16.7648 4.0000 1.0000
16.7700 4.0000 1.0000
16.7752 2.0000 1.0000
16.7804 2.0000 1.0000
16.7856 2.0000 1.0000
16.7908 0.0000 1.0000
16.7960 5.0000 1.0000
16.8012 3.0000 1.0000
16.8064 2.0000 1.0000
16.8116 3.0000 1.0000
16.8168 3.0000 1.0000
16.8220 5.0000 1.0000
16.8272 1.0000 1.0000
16.8324 1.0000 1.0000
16.8376 2.0000 1.0000
16.8428 6.0000 1.0000
16.8480 2.0000 1.0000
16.8532 3.0000 1.0000
16.8584 3.0000 1.0000
16.8636 5.0000 1.0000
16.8688 2.0000 1.0000
16.8740 3.0000 1.0000
16.8792 1.0000 1.0000
16.8844 2.0000 1.0000
16.8896 4.0000 1.0000
16.8948 3.0000 1.0000
16.9000 1.0000 1.0000
16.9052 2.0000 1.0000
16.9104 2.0000 1.0000
16.9156 4.0000 1.0000
16.9208 6.0000 1.0000
16.9260 1.0000 1.0000
16.9312 2.0000 1.0000
16.9364 3.0000 1.0000
16.9416 1.0000 1.0000
16.9468 5.0000 1.0000
16.9520 4.0000 1.0000
16.9572 1.0000 1.0000
16.9624 1.0000 1.0000
16.9676 2.0000 1.0000
16.9728 1.0000 1.0000
16.9780 0.0000 1.0000
16.9832 5.0000 1.0000
16.9884 1.0000 1.0000
16.9936 1.0000 1.0000
16.9988 1.0000 1.0000
17.0040 3.0000 1.0000
17.0092 1.0000 1.0000
17.0144 4.0000 1.0000
17.0196 4.0000 1.0000
17.0248 3.0000 1.0000
17.0300 1.0000 1.0000
17.0352 3.0000 1.0000
17.0404 3.0000 1.0000
17.0456 0.0000 1.0000
17.0508 3.0000 1.0000
17.0560 6.0000 1.0000
17.0612 1.0000 1.0000
17.0664 0.0000 1.0000
17.0716 3.0000 1.0000
17.0768 5.0000 1.0000
17.0820 6.0000 1.0000
17.0872 2.0000 1.0000
17.0924 2.0000 1.0000
17.0976 5.0000 1.0000
17.1028 5.0000 1.0000
17.1080 2.0000 1.0000
17.1132 7.0000 1.0000
17.1184 2.0000 1.0000
17.1236 4.0000 1.0000
17.1288 1.0000 1.0000
17.1340 1.0000 1.0000
17.1392 1.0000 1.0000
17.1444 0.0000 1.0000
17.1496 0.0000 1.0000
17.1548 4.0000 1.0000
17.1600 3.0000 1.0000
17.1652 3.0000 1.0000
17.1704 1.0000 1.0000
17.1756 4.0000 1.0000
17.1808 1.0000 1.0000
17.1860 5.0000 1.0000
17.1912 3.0000 1.0000
17.1964 3.0000 1.0000
17.2016 1.0000 1.0000
17.2068 3.0000 1.0000
17.2120 2.0000 1.0000
17.2172 5.0000 1.0000
17.2224 3.0000 1.0000
17.2276 5.0000 1.0000
17.2328 2.0000 1.0000
17.2380 3.0000 1.0000
17.2432 2.0000 1.0000
17.2484 2.0000 1.0000
17.2536 3.0000 1.0000
17.2588 1.0000 1.0000
17.2640 2.0000 1.0000
17.2692 2.0000 1.0000
17.2744 3.0000 1.0000
17.2796 2.0000 1.0000
17.2848 3.0000 1.0000
17.2900 0.0000 1.0000
17.2952 2.0000 1.0000
17.3004 3.0000 1.0000
17.3056 3.0000 1.0000
17.3108 3.0000 1.0000
17.3160 1.0000 1.0000
17.3212 0.0000 1.0000
17.3264 3.0000 1.0000
17.3316 0.0000 1.0000
17.3368 0.0000 1.0000
17.3420 7.0000 1.0000
17.3472 2.0000 1.0000
17.3524 1.0000 1.0000
17.3576 2.0000 1.0000
17.3628 4.0000 1.0000
17.3680 3.0000 1.0000
17.3732 2.0000 1.0000
17.3784 0.0000 1.0000
17.3836 3.0000 1.0000
17.3888 3.0000 1.0000
17.3940 4.0000 1.0000
17.3992 3.0000 1.0000
17.4044 2.0000 1.0000
17.4096 2.0000 1.0000
17.4148 0.0000 1.0000
17.4200 4.0000 1.0000
17.4252 2.0000 1.0000
17.4304 5.0000 1.0000
17.4356 4.0000 1.0000
17.4408 2.0000 1.0000
17.4460 4.0000 1.0000
17.4512 6.0000 1.0000
17.4564 3.0000 1.0000
17.4616 2.0000 1.0000
17.4668 0.0000 1.0000
17.4720 0.0000 1.0000
17.4772 0.0000 1.0000
17.4824 1.0000 1.0000
17.4876 1.0000 1.0000
17.4928 3.0000 1.0000
17.4980 4.0000 1.0000
17.5032 3.0000 1.0000
17.5084 4.0000 1.0000
17.5136 1.0000 1.0000
17.5188 2.0000 1.0000
17.5240 2.0000 1.0000
17.5292 4.0000 1.0000
17.5344 1.0000 1.0000
17.5396 3.0000 1.0000
17.5448 3.0000 1.0000
17.5500 1.0000 1.0000
17.5552 0.0000 1.0000
17.5604 1.0000 1.0000
17.5656 3.0000 1.0000
17.5708 4.0000 1.0000
17.5760 3.0000 1.0000
17.5812 2.0000 1.0000
17.5864 0.0000 1.0000
17.5916 5.0000 1.0000
17.5968 4.0000 1.0000
17.6020 1.0000 1.0000
17.6072 4.0000 1.0000
17.6124 4.0000 1.0000
17.6176 3.0000 1.0000
17.6228 4.0000 1.0000
17.6280 5.0000 1.0000
17.6332 1.0000 1.0000
17.6384 3.0000 1.0000
17.6436 3.0000 1.0000
17.6488 3.0000 1.0000
17.6540 3.0000 1.0000
17.6592 0.0000 1.0000
17.6644 3.0000 1.0000
17.6696 2.0000 1.0000
17.6748 2.0000 1.0000
17.6800 4.0000 1.0000
17.6852 1.0000 1.0000
17.6904 3.0000 1.0000
17.6956 3.0000 1.0000
17.7008 2.0000 1.0000
17.7060 0.0000 1.0000
17.7112 4.0000 1.0000
17.7164 4.0000 1.0000
17.7216 1.0000 1.0000
17.7268 0.0000 1.0000
17.7320 1.0000 1.0000
17.7372 2.0000 1.0000
17.7424 3.0000 1.0000
17.7476 2.0000 1.0000
17.7528 8.0000 1.0000
17.7580 1.0000 1.0000
17.7632 4.0000 1.0000
17.7684 1.0000 1.0000
17.7736 4.0000 1.0000
17.7788 3.0000 1.0000
17.7840 1.0000 1.0000
17.7892 4.0000 1.0000
17.7944 1.0000 1.0000
17.7996 1.0000 1.0000
17.8048 3.0000 1.0000
17.8100 0.0000 1.0000
17.8152 4.0000 1.0000
17.8204 3.0000 1.0000
17.8256 2.0000 1.0000
17.8308 4.0000 1.0000
17.8360 1.0000 1.0000
17.8412 2.0000 1.0000
17.8464 1.0000 1.0000
17.8516 3.0000 1.0000
17.8568 2.0000 1.0000
17.8620 3.0000 1.0000
17.8672 4.0000 1.0000
17.8724 3.0000 1.0000
17.8776 2.0000 1.0000
17.8828 2.0000 1.0000
17.8880 3.0000 1.0000
17.8932 1.0000 1.0000
17.8984 4.0000 1.0000
17.9036 3.0000 1.0000
17.9088 2.0000 1.0000
17.9140 1.0000 1.0000
17.9192 5.0000 1.0000
17.9244 3.0000 1.0000
17.9296 4.0000 1.0000
17.9348 5.0000 1.0000
17.9400 1.0000 1.0000
17.9452 3.0000 1.0000
17.9504 0.0000 1.0000
17.9556 4.0000 1.0000
17.9608 1.0000 1.0000
17.9660 0.0000 1.0000
17.9712 4.0000 1.0000
17.9764 4.0000 1.0000
17.9816 3.0000 1.0000
17.9868 0.0000 1.0000
17.9920 2.0000 1.0000
17.9972 2.0000 1.0000
18.0024 2.0000 1.0000
18.0076 0.0000 1.0000
18.0128 3.0000 1.0000
18.0180 3.0000 1.0000
18.0232 4.0000 1.0000
18.0284 0.0000 1.0000
18.0336 3.0000 1.0000
18.0388 1.0000 1.0000
18.0440 3.0000 1.0000
18.0492 4.0000 1.0000
18.0544 1.0000 1.0000
18.0596 4.0000 1.0000
18.0648 2.0000 1.0000
18.0700 2.0000 1.0000
18.0752 3.0000 1.0000
18.0804 3.0000 1.0000
18.0856 4.0000 1.0000
18.0908 6.0000 1.0000
18.0960 2.0000 1.0000
18.1012 3.0000 1.0000
18.1064 4.0000 1.0000
18.1116 2.0000 1.0000
18.1168 5.0000 1.0000
18.1220 4.0000 1.0000
18.1272 5.0000 1.0000
18.1324 1.0000 1.0000
18.1376 4.0000 1.0000
18.1428 2.0000 1.0000
18.1480 4.0000 1.0000
18.1532 1.0000 1.0000
18.1584 0.0000 1.0000
18.1636 3.0000 1.0000
18.1688 1.0000 1.0000
18.1740 0.0000 1.0000
18.1792 2.0000 1.0000
18.1844 3.0000 1.0000
18.1896 1.0000 1.0000
18.1948 4.0000 1.0000
18.2000 2.0000 1.0000
18.2052 2.0000 1.0000
18.2104 2.0000 1.0000
18.2156 5.0000 1.0000
18.2208 3.0000 1.0000
18.2260 3.0000 1.0000
18.2312 4.0000 1.0000
18.2364 5.0000 1.0000
18.2416 1.0000 1.0000
18.2468 5.0000 1.0000
18.2520 3.0000 1.0000
18.2572 3.0000 1.0000
18.2624 5.0000 1.0000
18.2676 2.0000 1.0000
18.2728 3.0000 1.0000
18.2780 4.0000 1.0000
18.2832 5.0000 1.0000
18.2884 3.0000 1.0000
18.2936 2.0000 1.0000
18.2988 4.0000 1.0000
18.3040 1.0000 1.0000
18.3092 6.0000 1.0000
18.3144 2.0000 1.0000
18.3196 2.0000 1.0000
18.3248 1.0000 1.0000
18.3300 2.0000 1.0000
18.3352 4.0000 1.0000
18.3404 4.0000 1.0000
18.3456 2.0000 1.0000
18.3508 3.0000 1.0000
18.3560 3.0000 1.0000
18.3612 3.0000 1.0000
18.3664 3.0000 1.0000
18.3716 1.0000 1.0000
18.3768 3.0000 1.0000
18.3820 2.0000 1.0000
18.3872 1.0000 1.0000
18.3924 2.0000 1.0000
18.3976 5.0000 1.0000
18.4028 2.0000 1.0000
18.4080 5.0000 1.0000
18.4132 2.0000 1.0000
18.4184 3.0000 1.0000
18.4236 7.0000 1.0000
18.4288 0.0000 1.0000
18.4340 1.0000 1.0000
18.4392 1.0000 1.0000
18.4444 1.0000 1.0000
18.4496 0.0000 1.0000
18.4548 3.0000 1.0000
18.4600 3.0000 1.0000
18.4652 3.0000 1.0000
18.4704 4.0000 1.0000
18.4756 0.0000 1.0000
18.4808 1.0000 1.0000
18.4860 3.0000 1.0000
18.4912 3.0000 1.0000
18.4964 3.0000 1.0000
18.5016 4.0000 1.0000
18.5068 6.0000 1.0000
18.5120 0.0000 1.0000
18.5172 2.0000 1.0000
18.5224 1.0000 1.0000
18.5276 0.0000 1.0000
18.5328 2.0000 1.0000
18.5380 5.0000 1.0000
18.5432 2.0000 1.0000
18.5484 2.0000 1.0000
18.5536 2.0000 1.0000
18.5588 4.0000 1.0000
18.5640 3.0000 1.0000
18.5692 4.0000 1.0000
18.5744 1.0000 1.0000
18.5796 1.0000 1.0000
18.5848 4.0000 1.0000
18.5900 1.0000 1.0000
18.5952 4.0000 1.0000
18.6004 0.0000 1.0000
18.6056 6.0000 1.0000
18.6108 4.0000 1.0000
18.6160 2.0000 1.0000
18.6212 1.0000 1.0000
18.6264 2.0000 1.0000
18.6316 1.0000 1.0000
18.6368 2.0000 1.0000
18.6420 0.0000 1.0000
18.6472 5.0000 1.0000
18.6524 0.0000 1.0000
18.6576 5.0000 1.0000
18.6628 5.0000 1.0000
18.6680 3.0000 1.0000
18.6732 4.0000 1.0000
18.6784 1.0000 1.0000
18.6836 3.0000 1.0000
18.6888 1.0000 1.0000
18.6940 4.0000 1.0000
18.6992 3.0000 1.0000
18.7044 3.0000 1.0000
18.7096 3.0000 1.0000
18.7148 3.0000 1.0000
18.7200 2.0000 1.0000
18.7252 1.0000 1.0000
18.7304 1.0000 1.0000
18.7356 2.0000 1.0000
18.7408 2.0000 1.0000
18.7460 3.0000 1.0000
18.7512 4.0000 1.0000
18.7564 2.0000 1.0000
18.7616 3.0000 1.0000
18.7668 6.0000 1.0000
18.7720 4.0000 1.0000
18.7772 2.0000 1.0000
18.7824 1.0000 1.0000
18.7876 5.0000 1.0000
18.7928 3.0000 1.0000
18.7980 6.0000 1.0000
18.8032 0.0000 1.0000
18.8084 1.0000 1.0000
18.8136 3.0000 1.0000
18.8188 3.0000 1.0000
18.8240 6.0000 1.0000
18.8292 1.0000 1.0000
18.8344 4.0000 1.0000
18.8396 4.0000 1.0000
18.8448 1.0000 1.0000
18.8500 5.0000 1.0000
18.8552 5.0000 1.0000
18.8604 2.0000 1.0000
18.8656 2.0000 1.0000
18.8708 2.0000 1.0000
18.8760 4.0000 1.0000
18.8812 0.0000 1.0000
18.8864 4.0000 1.0000
18.8916 4.0000 1.0000
18.8968 4.0000 1.0000
18.9020 2.0000 1.0000
18.9072 3.0000 1.0000
18.9124 3.0000 1.0000
18.9176 5.0000 1.0000
18.9228 3.0000 1.0000
18.9280 4.0000 1.0000
18.9332 1.0000 1.0000
18.9384 4.0000 1.0000
18.9436 0.0000 1.0000
18.9488 2.0000 1.0000
18.9540 3.0000 1.0000
18.9592 2.0000 1.0000
18.9644 4.0000 1.0000
18.9696 2.0000 1.0000
18.9748 3.0000 1.0000
18.9800 2.0000 1.0000
18.9852 0.0000 1.0000
18.9904 6.0000 1.0000
18.9956 0.0000 1.0000
19.0008 4.0000 1.0000
19.0060 2.0000 1.0000
19.0112 0.0000 1.0000
19.0164 4.0000 1.0000
19.0216 2.0000 1.0000
19.0268 1.0000 1.0000
19.0320 0.0000 1.0000
19.0372 5.0000 1.0000
19.0424 2.0000 1.0000
19.0476 1.0000 1.0000
19.0528 4.0000 1.0000
19.0580 0.0000 1.0000
19.0632 1.0000 1.0000
19.0684 3.0000 1.0000
19.0736 4.0000 1.0000
19.0788 1.0000 1.0000
19.0840 1.0000 1.0000
19.0892 2.0000 1.0000
19.0944 3.0000 1.0000
19.0996 0.0000 1.0000
19.1048 3.0000 1.0000
19.1100 3.0000 1.0000
19.1152 2.0000 1.0000
19.1204 1.0000 1.0000
19.1256 6.0000 1.0000
19.1308 2.0000 1.0000
19.1360 3.0000 1.0000
19.1412 4.0000 1.0000
19.1464 0.0000 1.0000
19.1516 3.0000 1.0000
19.1568 5.0000 1.0000
19.1620 1.0000 1.0000
19.1672 3.0000 1.0000
19.1724 0.0000 1.0000
19.1776 1.0000 1.0000
19.1828 1.0000 1.0000
19.1880 1.0000 1.0000
19.1932 2.0000 1.0000
19.1984 4.0000 1.0000
19.2036 5.0000 1.0000
19.2088 0.0000 1.0000
19.2140 3.0000 1.0000
19.2192 5.0000 1.0000
19.2244 0.0000 1.0000
19.2296 0.0000 1.0000
19.2348 3.0000 1.0000
19.2400 2.0000 1.0000
19.2452 5.0000 1.0000
19.2504 3.0000 1.0000
19.2556 4.0000 1.0000
19.2608 2.0000 1.0000
19.2660 1.0000 1.0000
19.2712 4.0000 1.0000
19.2764 3.0000 1.0000
19.2816 0.0000 1.0000
19.2868 0.0000 1.0000
19.2920 3.0000 1.0000
19.2972 3.0000 1.0000
19.3024 6.0000 1.0000
19.3076 2.0000 1.0000
19.3128 2.0000 1.0000
19.3180 2.0000 1.0000
19.3232 2.0000 1.0000
19.3284 2.0000 1.0000
19.3336 0.0000 1.0000
19.3388 3.0000 1.0000
19.3440 1.0000 1.0000
19.3492 6.0000 1.0000
19.3544 2.0000 1.0000
19.3596 1.0000 1.0000
19.3648 2.0000 1.0000
19.3700 5.0000 1.0000
19.3752 6.0000 1.0000
19.3804 1.0000 1.0000
19.3856 6.0000 1.0000
19.3908 2.0000 1.0000
19.3960 1.0000 1.0000
19.4012 5.0000 1.0000
19.4064 6.0000 1.0000
19.4116 4.0000 1.0000
19.4168 0.0000 1.0000
19.4220 0.0000 1.0000
19.4272 1.0000 1.0000
19.4324 1.0000 1.0000
19.4376 1.0000 1.0000
19.4428 5.0000 1.0000
19.4480 2.0000 1.0000
19.4532 1.0000 1.0000
19.4584 5.0000 1.0000
19.4636 3.0000 1.0000
19.4688 2.0000 1.0000
19.4740 3.0000 1.0000
19.4792 0.0000 1.0000
19.4844 4.0000 1.0000
19.4896 2.0000 1.0000
19.4948 4.0000 1.0000
19.5000 4.0000 1.0000
19.5052 2.0000 1.0000
19.5104 2.0000 1.0000
19.5156 2.0000 1.0000
19.5208 5.0000 1.0000
19.5260 0.0000 1.0000
19.5312 4.0000 1.0000
19.5364 1.0000 1.0000
19.5416 3.0000 1.0000
19.5468 4.0000 1.0000
19.5520 3.0000 1.0000
19.5572 4.0000 1.0000
19.5624 1.0000 1.0000
19.5676 0.0000 1.0000
19.5728 1.0000 1.0000
19.5780 1.0000 1.0000
19.5832 4.0000 1.0000
19.5884 3.0000 1.0000
19.5936 0.0000 1.0000
19.5988 1.0000 1.0000
19.6040 6.0000 1.0000
19.6092 2.0000 1.0000
19.6144 4.0000 1.0000
19.6196 3.0000 1.0000
19.6248 5.0000 1.0000
19.6300 7.0000 1.0000
19.6352 2.0000 1.0000
19.6404 3.0000 1.0000
19.6456 1.0000 1.0000
19.6508 4.0000 1.0000
19.6560 3.0000 1.0000
19.6612 3.0000 1.0000
19.6664 1.0000 1.0000
19.6716 4.0000 1.0000
19.6768 3.0000 1.0000
19.6820 1.0000 1.0000
19.6872 5.0000 1.0000
19.6924 5.0000 1.0000
19.6976 3.0000 1.0000
19.7028 2.0000 1.0000
19.7080 2.0000 1.0000
19.7132 2.0000 1.0000
19.7184 3.0000 1.0000
19.7236 1.0000 1.0000
19.7288 2.0000 1.0000
19.7340 6.0000 1.0000
19.7392 2.0000 1.0000
19.7444 3.0000 1.0000
19.7496 2.0000 1.0000
19.7548 4.0000 1.0000
19.7600 1.0000 1.0000
19.7652 0.0000 1.0000
19.7704 4.0000 1.0000
19.7756 2.0000 1.0000
19.7808 1.0000 1.0000
19.7860 2.0000 1.0000
19.7912 3.0000 1.0000
19.7964 2.0000 1.0000
19.8016 4.0000 1.0000
19.8068 2.0000 1.0000
19.8120 1.0000 1.0000
19.8172 1.0000 1.0000
19.8224 0.0000 1.0000
19.8276 2.0000 1.0000
19.8328 4.0000 1.0000
19.8380 4.0000 1.0000
19.8432 2.0000 1.0000
19.8484 1.0000 1.0000
19.8536 2.0000 1.0000
19.8588 2.0000 1.0000
19.8640 3.0000 1.0000
19.8692 0.0000 1.0000
19.8744 5.0000 1.0000
19.8796 3.0000 1.0000
19.8848 5.0000 1.0000
19.8900 4.0000 1.0000
19.8952 5.0000 1.0000
19.9004 5.0000 1.0000
19.9056 1.0000 1.0000
19.9108 1.0000 1.0000
19.9160 0.0000 1.0000
19.9212 2.0000 1.0000
19.9264 1.0000 1.0000
19.9316 4.0000 1.0000
19.9368 0.0000 1.0000
19.9420 2.0000 1.0000
19.9472 2.0000 1.0000
19.9524 0.0000 1.0000
19.9576 5.0000 1.0000
19.9628 2.0000 1.0000
19.9680 8.0000 1.0000
19.9732 3.0000 1.0000
19.9784 3.0000 1.0000
19.9836 1.0000 1.0000
19.9888 2.0000 1.0000
19.9940 3.0000 1.0000
19.9992 3.0000 1.0000
*RAS_INT_END
*RAS_DATA_END
